Sample 36,,
Wavelength (nm),Intensity (a.u.),
220,0.298373878,
220.9299927,-0.1281229854,
222.0299988,0.4336983562,
222.9600067,0.6442705989,
224.0599976,-0.4375729263,
225,0,
225.9299927,-0.2740584016,
227.0299988,0.2093051076,
227.9600067,-0.05026894063,
229.0599976,0.06947499514,
230,0.1849112511,
230.9299927,0.04871869832,
232.0299988,0.05320139602,
232.9600067,0.3135421574,
234.0599976,0.4726595879,
235,0.1838460565,
235.9299927,0.02962524071,
237.0299988,0.08512569964,
237.9600067,0.04845900461,
239.0599976,0.1871880293,
240,-0.06871081144,
240.9299927,0.03111968562,
242.0299988,0.05580979958,
242.9600067,0.07599746436,
244.0599976,-0.02326798812,
245,0.0771349892,
245.9299927,-0.0104336217,
247.0299988,0.1115403697,
247.9600067,0.02146291174,
249.0599976,-0.01158238575,
250,0.07522567362,
250.9299927,-0.0822109282,
252.0299988,0.196808666,
252.9600067,0.08151819557,
254.0599976,0.03303328156,
255,0.07794961333,
255.9299927,0.01379900333,
257.0299988,0.07916940004,
257.9599915,0.04858992249,
259.0599976,0,
260,0.0170370806,
261.0700073,0.1277139187,
262,0.06905531883,
263.0700073,0.1015503332,
264,0.1459280401,
265.0700073,0.2316525578,
266,0.2462447733,
267.0700073,0.3046632707,
268,0.3430469632,
269.0700073,0.2740922868,
270,0.3811217546,
270.9299927,0.3869250417,
272.0299988,0.3033133149,
272.9599915,0.3960180879,
274.0599976,0.3934942484,
275,0.3372851908,
275.9299927,0.4882974327,
277.0299988,0.4763821065,
277.9599915,0.3297887743,
279.0599976,0.3927094638,
280,0.3219989538,
280.9299927,0.4752041996,
282.0299988,0.3991914392,
282.9599915,0.4153804779,
284.0599976,0.4420203567,
285,0.3763036132,
285.9299927,0.3666032255,
287.0299988,0.5043138266,
287.9599915,0.4117768407,
289.0599976,0.5107945204,
290,0.4362763762,
291.0700073,0.3326577246,
292,0.4528136849,
293.0700073,0.362728864,
294,0.3799473941,
295.0700073,0.4305264354,
296,0.4060487151,
297.0700073,0.3860638142,
298,0.3999784589,
299.0700073,0.4836720526,
300,0.3996632695,
300.9299927,0.3873252571,
302.0299988,0.4890597165,
302.9599915,0.5088851452,
304.0599976,0.3383844197,
305,0.3902904391,
305.9299927,0.4176080823,
307.0299988,0.3764523864,
307.9599915,0.3892487586,
309.0599976,0.4496897161,
310,0.372630775,
311.0700073,0.420599103,
312,0.4973034859,
313.0700073,0.342454046,
314,0.4284439087,
315.0700073,0.3431229293,
316,0.4165435135,
317.0700073,0.4158063531,
318,0.3507797718,
319.0700073,0.5072658658,
320,0.4426933527,
321.0700073,0.3770957589,
322,0.3667188585,
323.0700073,0.3875347376,
324,0.2755542099,
325.0700073,0.4339731038,
326,0.5739161968,
327.0700073,0.4426467419,
328,0.4447784424,
329.0700073,0.4918916821,
330,0.4427857697,
330.9299927,0.4530542195,
332.0299988,0.3058150709,
332.9599915,0.4838306904,
334.0599976,0.4303058386,
335,0.5859586,
335.9299927,0.4172332585,
337.0299988,0.5223337412,
337.9599915,0.6703696847,
339.0599976,0.377506882,
340,0.4643603563,
341.0700073,0.4009313881,
342,0.4155977964,
343.0700073,0.4501336515,
344,0.4879341125,
345.0700073,0.4675981998,
346,0.3776488006,
347.0700073,0.2760023475,
348,0.3798004389,
349.0700073,0.4399159849,
350,0.2810212374,
351.0700073,0.4968034327,
352,0.437009871,
353.0700073,0.4342311323,
354,0.3880355656,
355.0700073,0.4111278653,
356,0.4263364971,
357.0700073,0.4480135441,
358,0.3799945116,
359.0700073,0.3330689669,
360,0.4293979406,
361.0700073,0.3300750852,
362,0.326523006,
363.0700073,0.3128117621,
364,0.3048048317,
365.0700073,0.3564445078,
366,0.3672658205,
367.0700073,0.273373425,
368,0.4431364834,
369.0700073,0.2820365131,
370,0.1989961714,
371.0599976,0.2261809856,
371.9599915,0.2378834635,
373.0299988,0.2416322678,
373.9299927,0.2122867852,
375,0.2100674957,
376.0599976,0.2023625821,
376.9599915,0.1423785537,
378.0299988,0.2133051157,
378.9299927,0.239906162,
380,0.1565421522,
381.0700073,0.1590625942,
382,0.1191793606,
383.0700073,0.1410273463,
384,0.2008872479,
385.0700073,0.1509319991,
386,0.2109653354,
387.0700073,0.09089669585,
388,0.1056237072,
389.0700073,0.05705564469,
390,0.0744984895,
391.0700073,0.1690034717,
392,0.1716738194,
393.0700073,0.1220224872,
394,0.03317607939,
395.0700073,0.1364256442,
396,0.09704834223,
397.0700073,0.1272156686,
398,0.07811445743,
399.0700073,0.106672734,
400,0.04183021188,
401.0599976,0.1321510226,
401.9599915,0.07261493057,
403.0299988,0.1412257105,
403.9299927,0.09759489447,
405,0.04314436391,
406.0599976,0.07367658615,
406.9599915,0.1602732092,
408.0299988,0.07457584888,
408.9299927,0.1070158333,
410,0.03083051369,
411.0700073,0.1349560767,
412,0.1010293141,
413.0700073,0.08631851524,
414,0.1139032468,
415.0700073,0.09950496256,
416,0.06573849916,
417.0700073,0.07700787485,
418,0.07749049366,
419.0700073,0.08129391819,
420,0.07657627761,
421.0599976,0.07214622945,
421.9599915,0.08237583935,
423.0299988,0.02821228281,
423.9299927,0.05529372394,
425,0.04737348109,
426.0599976,0.05417998508,
426.9599915,0.08476731181,
428.0299988,0.04465101287,
428.9299927,0.06254117191,
430,0.1027573198,
431.0599976,0.03468037397,
431.9599915,0.08961108327,
433.0299988,0.03784454241,
433.9299927,0.08311584592,
435,0.09951733798,
436.0599976,0.1668192446,
436.9599915,0.1699881852,
438.0299988,0.2550951242,
438.9299927,0.2822541296,
440,0.3494086862,
441.0599976,0.2997419834,
441.9599915,0.2959844768,
443.0299988,0.2572444975,
443.9299927,0.2252383083,
445,0.1542661786,
446.0599976,0.1172008216,
446.9599915,0.0895235166,
448.0299988,0.04493254423,
448.9299927,0.05062620714,
450,0.04545436054,
451.0599976,0.06033078581,
451.9599915,0.08400352299,
453.0299988,0.05027674884,
453.9299927,0.009326183237,
455,0.05596544966,
456.0599976,0.01370163355,
456.9599915,0.01810766011,
458.0299988,0.03462828696,
458.9299927,0.03792587295,
460,0.03007635102,
461.0599976,0.01834845543,
461.9599915,0.05406919867,
463.0299988,0.1066001505,
463.9299927,0.05577867106,
465,0.03540282324,
466.0599976,0.07248039544,
466.9599915,0.09736920893,
468.0299988,0.1153624356,
468.9299927,0.1395599246,
470,0.06448746473,
471.0400085,0.1405481249,
471.9400024,0.1140600368,
472.980011,0.08114548028,
474.019989,0.1258252561,
475.0700073,0.05871602893,
475.9700012,0.1107583195,
477.0100098,0.03584203497,
478.0499878,0.0762834698,
478.9500122,0.07223867625,
480,0.08113167435,
481.0599976,0.03531661257,
481.9599915,0.06954012811,
483.0299988,0.07779739797,
483.9299927,0.04458414018,
485,0.07820617408,
486.0599976,0.0693866238,
486.9599915,0.06823883206,
488.0299988,0.01266009733,
488.9299927,0.04425033182,
490,0.07012917846,
491.0400085,0.01012217533,
491.9400024,0.07021296024,
492.980011,0.03725481778,
494.019989,0.06121532992,
495.0700073,0.02972717769,
495.9700012,0.03953600302,
497.0100098,0.1394105405,
498.0499878,0.1024730131,
498.9500122,0.09986835718,
500,0.4368679225,

Sample 36,
Sample 36
Collection Time: 5/05/2023 4:48:34 PM
Operator Name  :
Scan Software Version: 1.2(147)
Parameter List :
Instrument                        Cary Eclipse
Instrument Serial Number          test
Data mode                         Fluorescence
Scan mode                         Excitation
X Mode                            Wavelength (nm)
Start (nm)                        220.00
Stop (nm)                         500.00
Em. Wavelength (nm)               508.00
Ex. Slit (nm)                     5
Em. Slit (nm)                     5
Scan rate (nm/min)                600.00
Data interval (nm)                1.0000
Averaging Time (s)                0.1000
Excitation filter                 Auto
Emission filter                   Open
PMT voltage (V)                   Medium
Corrected spectra                 OFF
Method Log     :
Method Name    : Default
Date/Time stamp: 5/05/2023 1:46:27 PM
Method Modifications:
User Delta Stop Changed: 5/05/2023 2:37:38 PM, Old: 450.00, New: 690.00
User Delta Increment Changed: 5/05/2023 2:37:38 PM, Old:  10.00, New:   0.15
Excitation Wavelength Changed: 5/05/2023 2:37:38 PM, Old: 350.00, New: 690.00
Emission Wavelength Changed: 5/05/2023 2:37:38 PM, Old: 400.00, New: 700.00
Stop Wavelength Changed: 5/05/2023 2:37:38 PM, Old: 600.00, New: 850.00
Excitation Wavelength Changed: 5/05/2023 2:38:01 PM, Old: 690.00, New: 630.00
Emission Wavelength Changed: 5/05/2023 2:38:01 PM, Old: 700.00, New: 640.00
Overlayed Graphs Changed: 5/05/2023 2:38:31 PM, Old:OFF, New:ON
Scan mode: Changed: 5/05/2023 2:40:13 PM, Old:Emission, New:Excitation
User Delta Stop Changed: 5/05/2023 2:40:13 PM, Old: 690.00, New: 780.00
Excitation Wavelength Changed: 5/05/2023 2:40:13 PM, Old: 630.00, New: 220.00
Emission Wavelength Changed: 5/05/2023 2:40:13 PM, Old: 640.00, New: 780.00
Stop Wavelength Changed: 5/05/2023 2:40:13 PM, Old: 850.00, New: 770.00
Scan mode: Changed: 5/05/2023 2:52:20 PM, Old:Excitation, New:Emission
Excitation Wavelength Changed: 5/05/2023 2:52:20 PM, Old: 220.00, New: 566.00
Emission Wavelength Changed: 5/05/2023 2:52:20 PM, Old: 780.00, New: 576.00
Stop Wavelength Changed: 5/05/2023 2:52:20 PM, Old: 770.00, New: 850.00
Excitation Wavelength Changed: 5/05/2023 2:53:03 PM, Old: 566.00, New: 500.00
Emission Wavelength Changed: 5/05/2023 2:53:03 PM, Old: 576.00, New: 510.00
Scan mode: Changed: 5/05/2023 2:55:50 PM, Old:Emission, New:Excitation
Excitation Wavelength Changed: 5/05/2023 2:55:50 PM, Old: 500.00, New: 220.00
Emission Wavelength Changed: 5/05/2023 2:55:50 PM, Old: 510.00, New: 613.00
Stop Wavelength Changed: 5/05/2023 2:55:50 PM, Old: 850.00, New: 605.00
Emission Wavelength Changed: 5/05/2023 2:56:46 PM, Old: 613.00, New: 625.00
Stop Wavelength Changed: 5/05/2023 2:56:46 PM, Old: 605.00, New: 615.00
Scan mode: Changed: 5/05/2023 3:10:55 PM, Old:Excitation, New:Emission
Excitation Wavelength Changed: 5/05/2023 3:10:55 PM, Old: 220.00, New: 542.00
Emission Wavelength Changed: 5/05/2023 3:10:55 PM, Old: 625.00, New: 552.00
Stop Wavelength Changed: 5/05/2023 3:10:55 PM, Old: 615.00, New: 800.00
Scan mode: Changed: 5/05/2023 3:23:18 PM, Old:Emission, New:Excitation
Excitation Wavelength Changed: 5/05/2023 3:23:18 PM, Old: 542.00, New: 220.00
Emission Wavelength Changed: 5/05/2023 3:23:18 PM, Old: 552.00, New: 640.00
Stop Wavelength Changed: 5/05/2023 3:23:18 PM, Old: 800.00, New: 630.00
Scan mode: Changed: 5/05/2023 3:39:01 PM, Old:Excitation, New:Emission
Excitation Wavelength Changed: 5/05/2023 3:39:01 PM, Old: 220.00, New: 460.00
Emission Wavelength Changed: 5/05/2023 3:39:01 PM, Old: 640.00, New: 470.00
Stop Wavelength Changed: 5/05/2023 3:39:01 PM, Old: 630.00, New: 700.00
Scan mode: Changed: 5/05/2023 3:41:10 PM, Old:Emission, New:Excitation
Excitation Wavelength Changed: 5/05/2023 3:41:10 PM, Old: 460.00, New: 220.00
Emission Wavelength Changed: 5/05/2023 3:41:10 PM, Old: 470.00, New: 540.00
Stop Wavelength Changed: 5/05/2023 3:41:10 PM, Old: 700.00, New: 530.00
Emission Wavelength Changed: 5/05/2023 3:42:01 PM, Old: 540.00, New: 580.00
Stop Wavelength Changed: 5/05/2023 3:42:01 PM, Old: 530.00, New: 570.00
Excitation Wavelength Changed: 5/05/2023 3:42:20 PM, Old: 220.00, New: 390.00
Excitation Wavelength Changed: 5/05/2023 3:42:26 PM, Old: 390.00, New: 220.00
Scan mode: Changed: 5/05/2023 4:19:33 PM, Old:Excitation, New:Emission
Excitation Wavelength Changed: 5/05/2023 4:19:33 PM, Old: 220.00, New: 365.00
Emission Wavelength Changed: 5/05/2023 4:19:33 PM, Old: 580.00, New: 370.00
Stop Wavelength Changed: 5/05/2023 4:19:33 PM, Old: 570.00, New: 600.00
Excitation Wavelength Changed: 5/05/2023 4:20:26 PM, Old: 365.00, New: 320.00
Emission Wavelength Changed: 5/05/2023 4:20:26 PM, Old: 370.00, New: 330.00
Scan mode: Changed: 5/05/2023 4:22:22 PM, Old:Emission, New:Excitation
Excitation Wavelength Changed: 5/05/2023 4:22:22 PM, Old: 320.00, New: 220.00
Emission Wavelength Changed: 5/05/2023 4:22:22 PM, Old: 330.00, New: 500.00
Stop Wavelength Changed: 5/05/2023 4:22:22 PM, Old: 600.00, New: 490.00
Scan mode: Changed: 5/05/2023 4:30:21 PM, Old:Excitation, New:Emission
Excitation Wavelength Changed: 5/05/2023 4:30:21 PM, Old: 220.00, New: 320.00
Emission Wavelength Changed: 5/05/2023 4:30:21 PM, Old: 500.00, New: 330.00
Stop Wavelength Changed: 5/05/2023 4:30:21 PM, Old: 490.00, New: 600.00
Excitation Wavelength Changed: 5/05/2023 4:31:31 PM, Old: 320.00, New: 327.00
Emission Wavelength Changed: 5/05/2023 4:31:31 PM, Old: 330.00, New: 337.00
Scan mode: Changed: 5/05/2023 4:33:42 PM, Old:Emission, New:Excitation
Excitation Wavelength Changed: 5/05/2023 4:33:42 PM, Old: 327.00, New: 220.00
Emission Wavelength Changed: 5/05/2023 4:33:42 PM, Old: 337.00, New: 400.00
Stop Wavelength Changed: 5/05/2023 4:33:42 PM, Old: 600.00, New: 390.00
Emission Wavelength Changed: 5/05/2023 4:34:20 PM, Old: 400.00, New: 376.00
Stop Wavelength Changed: 5/05/2023 4:34:20 PM, Old: 390.00, New: 370.00
Scan mode: Changed: 5/05/2023 4:44:00 PM, Old:Excitation, New:Emission
Excitation Wavelength Changed: 5/05/2023 4:44:00 PM, Old: 220.00, New: 336.00
Emission Wavelength Changed: 5/05/2023 4:44:00 PM, Old: 376.00, New: 346.00
Stop Wavelength Changed: 5/05/2023 4:44:00 PM, Old: 370.00, New: 500.00
Stop Wavelength Changed: 5/05/2023 4:44:42 PM, Old: 500.00, New: 700.00
Scan mode: Changed: 5/05/2023 4:47:17 PM, Old:Emission, New:Excitation
Excitation Wavelength Changed: 5/05/2023 4:47:17 PM, Old: 336.00, New: 220.00
Emission Wavelength Changed: 5/05/2023 4:47:17 PM, Old: 346.00, New: 508.00
Stop Wavelength Changed: 5/05/2023 4:47:17 PM, Old: 700.00, New: 500.00
End Method Modifications

