Sample 36,,
Wavelength (nm),Intensity (a.u.),
220,0.2883044481,
220.9299927,-0.423992306,
222.0299988,0.4240282476,
222.9600067,0.2409154773,
224.0599976,0.3621933162,
225,0.3088008463,
225.9299927,0.3439274728,
227.0299988,0.3428518474,
227.9600067,0.4396411479,
229.0599976,0.4851593971,
230,0.6241291165,
230.9299927,0.7937713265,
232.0299988,0.8664009571,
232.9600067,0.8944812417,
234.0599976,0.6404362321,
235,0.5632305145,
235.9299927,0.5259640813,
237.0299988,0.3034702539,
237.9600067,0.4965164661,
239.0599976,0.4419088662,
240,0.5149311423,
240.9299927,0.5735022426,
242.0299988,0.6041396856,
242.9600067,1.025382996,
244.0599976,2.231148958,
245,4.495680809,
245.9299927,6.858470917,
247.0299988,9.618079185,
247.9600067,11.44224262,
249.0599976,12.06558418,
250,10.99056053,
250.9299927,8.675227165,
252.0299988,5.060937405,
252.9600067,2.449258089,
254.0599976,0.9741489291,
255,0.4155254364,
255.9299927,0.2977479398,
257.0299988,0.2732543349,
257.9599915,0.2299738079,
259.0599976,0.2374023795,
260,0.2637931406,
261.0700073,0.2224546522,
262,0.2084197402,
263.0700073,0.2566735148,
264,0.1985360235,
265.0700073,0.2012873143,
266,0.1942402124,
267.0700073,0.1841100156,
268,0.212329939,
269.0700073,0.2485462725,
270,0.2243480682,
270.9299927,0.1810995191,
272.0299988,0.2290241271,
272.9599915,0.1881107241,
274.0599976,0.1934448332,
275,0.1951070726,
275.9299927,0.2459097654,
277.0299988,0.1883510202,
277.9599915,0.2016039491,
279.0599976,0.2277534902,
280,0.1938524097,
280.9299927,0.2144596577,
282.0299988,0.154098466,
282.9599915,0.2168103755,
284.0599976,0.1555785835,
285,0.213104561,
285.9299927,0.1941320896,
287.0299988,0.2282105982,
287.9599915,0.1880081594,
289.0599976,0.1959406435,
290,0.1931453794,
291.0700073,0.2070902139,
292,0.2090748399,
293.0700073,0.1739789844,
294,0.1506878734,
295.0700073,0.158011809,
296,0.2156131715,
297.0700073,0.1711938828,
298,0.2047196031,
299.0700073,0.1742338091,
300,0.1918316334,
300.9299927,0.2248160392,
302.0299988,0.2049650103,
302.9599915,0.2126405984,
304.0599976,0.2198712826,
305,0.1600957811,
305.9299927,0.2069032043,
307.0299988,0.177528888,
307.9599915,0.1838980615,
309.0599976,0.2040169686,
310,0.17180188,
311.0700073,0.1150636375,
312,0.1651854962,
313.0700073,0.1950103045,
314,0.1436537057,
315.0700073,0.1399668455,
316,0.1332926452,
317.0700073,0.2124454379,
318,0.1848638654,
319.0700073,0.1473540217,
320,0.1834005862,
321.0700073,0.1637922674,
322,0.1607577503,
323.0700073,0.134100154,
324,0.1447963715,
325.0700073,0.1200373024,
326,0.1010924503,
327.0700073,0.16463615,
328,0.2212878913,
329.0700073,0.1349620968,
330,0.1261306703,
330.9299927,0.1658477932,
332.0299988,0.1596684307,
332.9599915,0.1672765911,
334.0599976,0.09843940288,
335,0.1852793843,
335.9299927,0.02789633721,
337.0299988,0.1161217988,
337.9599915,0.1518813074,
339.0599976,0.08889283985,
340,0.1187886298,
341.0700073,0.07306469977,
342,0.05696995929,
343.0700073,0.1075863764,
344,0.07990411669,
345.0700073,0.1420063823,
346,0.1118270755,
347.0700073,0.09246673435,
348,0.1418846697,
349.0700073,0.0787262693,
350,0.1442880034,
351.0700073,0.08465423435,
352,0.1006635651,
353.0700073,0.1103240177,
354,0.06193543226,
355.0700073,0.0705947727,
356,0.08912618458,
357.0700073,0.1120515466,
358,0.09192535281,
359.0700073,0.05697738379,
360,0.0812478289,
361.0700073,0.09975682199,
362,0.07209224254,
363.0700073,0.1009998992,
364,0.05874619633,
365.0700073,0.06832663715,
366,0.09288737923,
367.0700073,0.04154518619,
368,0.02729962021,
369.0700073,0.07815743983,
370,0.05717958137,
371.0599976,0.1247465387,
371.9599915,0.06371441483,
373.0299988,0.08924549073,
373.9299927,0.07038599998,
375,0.06327975541,
376.0599976,0.1191904172,
376.9599915,0.1128114313,
378.0299988,0.08470207453,
378.9299927,0.07450512797,
380,0.08424793184,
381.0700073,0.08364970982,
382,0.07213938981,
383.0700073,0.09715340286,
384,0.06353528798,
385.0700073,0.07702005655,
386,0.1032203063,
387.0700073,0.08716285229,
388,0.06391216069,
389.0700073,0.09272179008,
390,0.09965483099,
391.0700073,0.08107393235,
392,0.07758467644,
393.0700073,0.06556884199,
394,0.06865273416,
395.0700073,0.08609832823,
396,0.0932822004,
397.0700073,0.07333156466,
398,0.06452503055,
399.0700073,0.07534971088,
400,0.06503152102,
401.0599976,0.04993280396,
401.9599915,0.06369074434,
403.0299988,0.05972064659,
403.9299927,0.067759417,
405,0.09712828696,
406.0599976,0.08634512126,
406.9599915,0.1107715592,
408.0299988,0.07385931164,
408.9299927,0.06636571884,
410,0.05184675753,
411.0700073,0.0724972263,
412,0.06100240722,
413.0700073,0.06578923017,
414,0.07202678174,
415.0700073,0.07266183943,
416,0.086526528,
417.0700073,0.05047753453,
418,0.05730631575,
419.0700073,0.05680612847,
420,0.04335904494,
421.0599976,0.04975986108,
421.9599915,0.04909266904,
423.0299988,0.04319668561,
423.9299927,0.04647586495,
425,0.04821503535,
426.0599976,0.03426326439,
426.9599915,0.04729190841,
428.0299988,0.07062092423,
428.9299927,0.1021214202,
430,0.1543991268,
431.0599976,0.229742378,
431.9599915,0.2825528383,
433.0299988,0.3695169687,
433.9299927,0.3772335052,
435,0.3808429241,
436.0599976,0.3283752203,
436.9599915,0.2727357447,
438.0299988,0.1810408235,
438.9299927,0.1438870728,
440,0.09584037215,
441.0599976,0.08606228977,
441.9599915,0.0650440827,
443.0299988,0.04287590086,
443.9299927,0.04939653724,
445,0.0608719103,
446.0599976,0.03458511829,
446.9599915,0.05430239812,
448.0299988,0.03436492011,
448.9299927,0.0461640507,
450,0.03403916582,
451.0599976,0.02631051466,
451.9599915,0.05041199923,
453.0299988,0.01853351295,
453.9299927,0.04114663228,
455,0.03314594179,
456.0599976,0.06075679138,
456.9599915,0.06010349095,
458.0299988,0.0471890904,
458.9299927,0.02914511971,
460,0.03805150464,
461.0599976,0.06629948318,
461.9599915,0.04189310968,
463.0299988,0.0726121366,
463.9299927,0.06788251549,
465,0.07686626911,
466.0599976,0.101639919,
466.9599915,0.09461228549,
468.0299988,0.07041090727,
468.9299927,0.07299552113,
470,0.06587904692,
471.0400085,0.07726046443,
471.9400024,0.1047455743,
472.980011,0.07132644951,
474.019989,0.1168089658,
475.0700073,0.1021643355,
475.9700012,0.1085234955,
477.0100098,0.06803172827,
478.0499878,0.09287402034,
478.9500122,0.08839921653,
480,0.04848141223,
481.0599976,0.04857085645,
481.9599915,0.02004243247,
483.0299988,0.006745544262,
483.9299927,0.02772808634,
485,0.00794151891,
486.0599976,0.01151813101,
486.9599915,0.02274032682,
488.0299988,0.007195674814,
488.9299927,0.04431748763,
490,0.04347361997,

Sample 36,
Sample 36
Collection Time: 22/08/2023 1:50:20 PM
Operator Name  :
Scan Software Version: 1.2(147)
Parameter List :
Instrument                        Cary Eclipse
Instrument Serial Number          test
Data mode                         Fluorescence
Scan mode                         Excitation
X Mode                            Wavelength (nm)
Start (nm)                        220.00
Stop (nm)                         490.00
Em. Wavelength (nm)               500.00
Ex. Slit (nm)                     5
Em. Slit (nm)                     5
Scan rate (nm/min)                120.00
Data interval (nm)                1.0000
Averaging Time (s)                0.5000
Excitation filter                 Auto
Emission filter                   Open
PMT voltage (V)                   Medium
Corrected spectra                 OFF
Method Log     :
Method Name    : Default
Date/Time stamp: 22/08/2023 11:38:10 AM
Method Modifications:
Overlayed Graphs Changed: 22/08/2023 11:47:15 AM, Old:OFF, New:ON
Scan Control Changed: 22/08/2023 11:47:15 AM, Old:Medium, New:Slow
Ave. time (s): Changed: 22/08/2023 11:47:15 AM, Old:0.10000, New:0.50000
Excitation Wavelength Changed: 22/08/2023 11:47:15 AM, Old: 350.00, New: 340.00
Emission Wavelength Changed: 22/08/2023 11:47:15 AM, Old: 400.00, New: 350.00
Stop Wavelength Changed: 22/08/2023 11:47:15 AM, Old: 600.00, New: 750.00
Excitation Wavelength Changed: 22/08/2023 11:48:29 AM, Old: 340.00, New: 378.00
Emission Wavelength Changed: 22/08/2023 11:48:29 AM, Old: 350.00, New: 390.00
PMT Volts Changed: 22/08/2023 11:52:22 AM, Old:600, New:800
Emission PMT (V): Changed: 22/08/2023 11:52:22 AM, Old: 600, New: 800
Scan mode: Changed: 22/08/2023 11:59:48 AM, Old:Emission, New:Excitation
User Delta Stop Changed: 22/08/2023 11:59:48 AM, Old: 450.00, New: 483.00
User Delta Increment Changed: 22/08/2023 11:59:48 AM, Old:  10.00, New:   0.15
Excitation Wavelength Changed: 22/08/2023 11:59:48 AM, Old: 378.00, New: 220.00
Emission Wavelength Changed: 22/08/2023 11:59:48 AM, Old: 390.00, New: 483.00
Stop Wavelength Changed: 22/08/2023 11:59:48 AM, Old: 750.00, New: 373.00
Stop Wavelength Changed: 22/08/2023 12:02:41 PM, Old: 373.00, New: 473.00
PMT Volts Changed: 22/08/2023 12:08:26 PM, Old:800, New:600
Emission PMT (V): Changed: 22/08/2023 12:08:26 PM, Old: 800, New: 600
Scan mode: Changed: 22/08/2023 12:08:56 PM, Old:Excitation, New:Emission
Excitation Wavelength Changed: 22/08/2023 12:08:56 PM, Old: 220.00, New: 325.00
Emission Wavelength Changed: 22/08/2023 12:08:56 PM, Old: 483.00, New: 335.00
Stop Wavelength Changed: 22/08/2023 12:08:56 PM, Old: 473.00, New: 750.00
Scan mode: Changed: 22/08/2023 12:18:15 PM, Old:Emission, New:Excitation
User Delta Stop Changed: 22/08/2023 12:18:15 PM, Old: 483.00, New: 500.00
Excitation Wavelength Changed: 22/08/2023 12:18:15 PM, Old: 325.00, New: 220.00
Emission Wavelength Changed: 22/08/2023 12:18:15 PM, Old: 335.00, New: 500.00
Stop Wavelength Changed: 22/08/2023 12:18:15 PM, Old: 750.00, New: 490.00
Scan mode: Changed: 22/08/2023 12:25:59 PM, Old:Excitation, New:Emission
Excitation Wavelength Changed: 22/08/2023 12:25:59 PM, Old: 220.00, New: 400.00
Emission Wavelength Changed: 22/08/2023 12:25:59 PM, Old: 500.00, New: 410.00
Stop Wavelength Changed: 22/08/2023 12:25:59 PM, Old: 490.00, New: 750.00
Scan mode: Changed: 22/08/2023 12:35:24 PM, Old:Emission, New:Excitation
Excitation Wavelength Changed: 22/08/2023 12:35:24 PM, Old: 400.00, New: 410.00
Emission Wavelength Changed: 22/08/2023 12:35:24 PM, Old: 410.00, New: 400.00
User Delta Stop Changed: 22/08/2023 12:35:35 PM, Old: 500.00, New: 520.00
Excitation Wavelength Changed: 22/08/2023 12:35:35 PM, Old: 410.00, New: 220.00
Emission Wavelength Changed: 22/08/2023 12:35:35 PM, Old: 400.00, New: 520.00
Stop Wavelength Changed: 22/08/2023 12:35:35 PM, Old: 750.00, New: 510.00
Scan mode: Changed: 22/08/2023 12:41:42 PM, Old:Excitation, New:Emission
Excitation Wavelength Changed: 22/08/2023 12:41:42 PM, Old: 220.00, New: 330.00
Emission Wavelength Changed: 22/08/2023 12:41:42 PM, Old: 520.00, New: 340.00
Stop Wavelength Changed: 22/08/2023 12:41:42 PM, Old: 510.00, New: 650.00
Scan mode: Changed: 22/08/2023 12:49:06 PM, Old:Emission, New:Excitation
Excitation Wavelength Changed: 22/08/2023 12:49:06 PM, Old: 330.00, New: 220.00
Emission Wavelength Changed: 22/08/2023 12:49:06 PM, Old: 340.00, New: 400.00
Stop Wavelength Changed: 22/08/2023 12:49:06 PM, Old: 650.00, New: 390.00
Scan mode: Changed: 22/08/2023 12:53:51 PM, Old:Excitation, New:Emission
Excitation Wavelength Changed: 22/08/2023 12:53:51 PM, Old: 220.00, New: 460.00
Emission Wavelength Changed: 22/08/2023 12:53:51 PM, Old: 400.00, New: 470.00
Stop Wavelength Changed: 22/08/2023 12:53:51 PM, Old: 390.00, New: 800.00
Scan mode: Changed: 22/08/2023 1:05:37 PM, Old:Emission, New:Excitation
User Delta Stop Changed: 22/08/2023 1:05:37 PM, Old: 520.00, New: 540.00
Excitation Wavelength Changed: 22/08/2023 1:05:37 PM, Old: 460.00, New: 220.00
Emission Wavelength Changed: 22/08/2023 1:05:37 PM, Old: 470.00, New: 540.00
Stop Wavelength Changed: 22/08/2023 1:05:37 PM, Old: 800.00, New: 530.00
User Delta Stop Changed: 22/08/2023 1:08:47 PM, Old: 540.00, New: 600.00
Excitation Wavelength Changed: 22/08/2023 1:08:47 PM, Old: 220.00, New: 400.00
Emission Wavelength Changed: 22/08/2023 1:08:47 PM, Old: 540.00, New: 600.00
Stop Wavelength Changed: 22/08/2023 1:08:47 PM, Old: 530.00, New: 590.00
Scan mode: Changed: 22/08/2023 1:13:41 PM, Old:Excitation, New:Emission
Excitation Wavelength Changed: 22/08/2023 1:13:41 PM, Old: 400.00, New: 470.00
Emission Wavelength Changed: 22/08/2023 1:13:41 PM, Old: 600.00, New: 480.00
Stop Wavelength Changed: 22/08/2023 1:13:41 PM, Old: 590.00, New: 800.00
Scan mode: Changed: 22/08/2023 1:20:43 PM, Old:Emission, New:Excitation
User Delta Stop Changed: 22/08/2023 1:20:43 PM, Old: 600.00, New: 650.00
Excitation Wavelength Changed: 22/08/2023 1:20:43 PM, Old: 470.00, New: 220.00
Emission Wavelength Changed: 22/08/2023 1:20:43 PM, Old: 480.00, New: 650.00
Stop Wavelength Changed: 22/08/2023 1:20:43 PM, Old: 800.00, New: 640.00
Scan mode: Changed: 22/08/2023 1:28:58 PM, Old:Excitation, New:Emission
Excitation Wavelength Changed: 22/08/2023 1:28:58 PM, Old: 220.00, New: 330.00
Emission Wavelength Changed: 22/08/2023 1:28:58 PM, Old: 650.00, New: 340.00
Stop Wavelength Changed: 22/08/2023 1:28:58 PM, Old: 640.00, New: 650.00
Scan Control Changed: 22/08/2023 1:29:12 PM, Old:Slow, New:Fast
Ave. time (s): Changed: 22/08/2023 1:29:12 PM, Old:0.50000, New:0.10000
Data interval: Changed: 22/08/2023 1:29:12 PM, Old:   1.00, New:   2.00
Scan Control Changed: 22/08/2023 1:29:38 PM, Old:Fast, New:Slow
Ave. time (s): Changed: 22/08/2023 1:29:38 PM, Old:0.10000, New:0.50000
Data interval: Changed: 22/08/2023 1:29:38 PM, Old:   2.00, New:   1.00
Scan mode: Changed: 22/08/2023 1:37:36 PM, Old:Emission, New:Excitation
Excitation Wavelength Changed: 22/08/2023 1:37:36 PM, Old: 330.00, New: 220.00
Emission Wavelength Changed: 22/08/2023 1:37:36 PM, Old: 340.00, New: 470.00
Stop Wavelength Changed: 22/08/2023 1:37:36 PM, Old: 650.00, New: 460.00
Scan Control Changed: 22/08/2023 1:37:44 PM, Old:Slow, New:Fast
Ave. time (s): Changed: 22/08/2023 1:37:44 PM, Old:0.50000, New:0.10000
Data interval: Changed: 22/08/2023 1:37:44 PM, Old:   1.00, New:   2.00
Emission Wavelength Changed: 22/08/2023 1:38:24 PM, Old: 470.00, New: 530.00
Stop Wavelength Changed: 22/08/2023 1:38:24 PM, Old: 460.00, New: 520.00
Scan Control Changed: 22/08/2023 1:38:34 PM, Old:Fast, New:Slow
Ave. time (s): Changed: 22/08/2023 1:38:34 PM, Old:0.10000, New:0.50000
Data interval: Changed: 22/08/2023 1:38:34 PM, Old:   2.00, New:   1.00
Cursor Peak Style Changed: 22/08/2023 1:39:17 PM, Old:Choice 0, New:Choice 1
Cursor Peak Style Changed: 22/08/2023 1:39:17 PM, Old:Valleys, New:Choice 2
Cursor Peak Style Changed: 22/08/2023 1:39:17 PM, Old:Peaks Valleys, New:Choice 0
Emission Wavelength Changed: 22/08/2023 1:47:12 PM, Old: 530.00, New: 500.00
Stop Wavelength Changed: 22/08/2023 1:47:12 PM, Old: 520.00, New: 490.00
End Method Modifications

