Sample 4,,
Wavelength (nm),Intensity (a.u.),
340,5.577455997,
341.0700073,4.660001755,
342,5.019303799,
343.0700073,5.821906567,
344,6.9845891,
345.0700073,8.334283829,
346,9.845522881,
347.0700073,11.69614506,
348,13.19126797,
349.0700073,15.37015438,
350,17.07493973,
351.0599976,19.09959984,
351.9599915,20.59341621,
353.0299988,21.83966064,
353.9299927,22.61593628,
355,23.32470512,
356.0599976,23.5876236,
356.9599915,23.90721703,
358.0299988,23.69307327,
358.9299927,23.75343132,
360,23.75422668,
361.0700073,23.59998512,
362,24.1305275,
363.0700073,24.55455589,
364,24.79385948,
365.0700073,25.5244236,
366,25.95274353,
367.0700073,26.66161537,
368,26.63456535,
369.0700073,27.10619926,
370,27.23028946,
371.0599976,27.04533958,
371.9599915,26.57876396,
373.0299988,25.92522621,
373.9299927,25.31381035,
375,24.50039482,
376.0599976,23.48700523,
376.9599915,23.07260132,
378.0299988,22.29694748,
378.9299927,21.42071342,
380,20.46468163,
381.0700073,19.98987198,
382,19.27521896,
383.0700073,18.71168518,
384,18.06029701,
385.0700073,17.52275848,
386,17.17850685,
387.0700073,16.35581398,
388,16.03409767,
389.0700073,15.41970539,
390,15.21054649,
391.0599976,14.47697353,
391.9599915,14.10165882,
393.0299988,13.45895481,
393.9299927,13.06850338,
395,12.51209164,
396.0599976,11.96244049,
396.9599915,11.45560265,
398.0299988,10.95708561,
398.9299927,10.48382187,
400,9.829935074,
401.0599976,9.64413166,
401.9599915,9.279223442,
403.0299988,8.786694527,
403.9299927,8.454061508,
405,8.111665726,
406.0599976,7.736866474,
406.9599915,7.394921303,
408.0299988,7.064511299,
408.9299927,6.737801075,
410,6.537983894,
411.0599976,6.123571396,
411.9599915,5.899326324,
413.0299988,5.732492924,
413.9299927,5.482729435,
415,5.13288784,
416.0599976,4.846063137,
416.9599915,4.833780289,
418.0299988,4.538027763,
418.9299927,4.297047615,
420,4.088011265,
421.0599976,4.060240746,
421.9599915,3.707895994,
423.0299988,3.608709335,
423.9299927,3.434731722,
425,3.128624916,
426.0599976,3.16249156,
426.9599915,2.99698925,
428.0299988,2.821346283,
428.9299927,2.867553473,
430,2.536157131,
431.0400085,2.350371599,
431.9400024,2.323527813,
432.980011,2.212850809,
434.019989,2.124806643,
435.0700073,2.049046278,
435.9700012,1.987054229,
437.0100098,1.928777814,
438.0499878,1.822227001,
438.9500122,1.745678067,
440,1.68435812,
441.0599976,1.582027078,
441.9599915,1.524683475,
443.0299988,1.413773656,
443.9299927,1.438331604,
445,1.331548929,
446.0599976,1.291819692,
446.9599915,1.268885136,
448.0299988,1.11521697,
448.9299927,1.22432363,
450,1.06085968,
451.0599976,1.099458456,
451.9599915,1.034722567,
453.0299988,0.9883016944,
453.9299927,0.9465279579,
455,0.9859400988,
456.0599976,0.8634613752,
456.9599915,0.8297833204,
458.0299988,0.8329418302,
458.9299927,0.7428848743,
460,0.745024085,
461.0400085,0.7696872354,
461.9400024,0.6942806244,
462.980011,0.6638430357,
464.019989,0.7268527746,
465.0700073,0.6576997042,
465.9700012,0.6145602465,
467.0100098,0.7702656388,
468.0499878,0.627897501,
468.9500122,0.6387646794,
470,0.5756892562,
471.0400085,0.5208423734,
471.9400024,0.4947018325,
472.980011,0.5196306705,
474.019989,0.5229557157,
475.0700073,0.4124037325,
475.9700012,0.4558063745,
477.0100098,0.535860002,
478.0499878,0.4090881646,
478.9500122,0.4718963504,
480,0.3768574893,
481.0400085,0.4419360161,
481.9400024,0.3429564834,
482.980011,0.3378493786,
484.019989,0.3869915009,
485.0700073,0.4088250399,
485.9700012,0.4609917402,
487.0100098,0.3347781599,
488.0499878,0.3867028654,
488.9500122,0.3041632771,
490,0.4048468769,
491.0400085,0.3479187191,
491.9400024,0.358712852,
492.980011,0.2309620082,
494.019989,0.342813164,
495.0700073,0.2432582676,
495.9700012,0.3552055061,
497.0100098,0.3205225468,
498.0499878,0.2379028201,
498.9500122,0.3535655141,
500,0.28344962,
501.0400085,0.1675047725,
501.9400024,0.2083039135,
502.980011,0.2315823883,
504.019989,0.2049924135,
505.0700073,0.3008090854,
505.9700012,0.2995993197,
507.0100098,0.2964325845,
508.0499878,0.2210783213,
508.9500122,0.1855074763,
510,0.1492370218,
511.0400085,0.1929258257,
511.9400024,0.1466808468,
512.9799805,0.2266444713,
514.0200195,0.2371233553,
515.0700073,0.1999300271,
515.9699707,0.1761518121,
517.0100098,0.1787906289,
518.0499878,0.1703850478,
518.9500122,0.1535325646,
520,0.1435838491,
521.0200195,0.1597157121,
522.0499878,0.1943654269,
522.9400024,0.1963518411,
523.9699707,0.08825689554,
525,0.1568658948,
526.0200195,0.2216163278,
527.0499878,0.1979049444,
527.9400024,0.1238290593,
528.9699707,0.09963302314,
530,0.2015777677,
531.039978,0.1438815296,
531.9400024,0.1306287646,
532.9799805,0.1062928736,
534.0200195,0.1371397972,
535.0700073,0.09332586825,
535.9699707,0.04081521556,
537.0100098,0.1030475497,
538.0499878,0.154804498,
538.9500122,0.2130023837,
540,0.1113500446,
541.0200195,0.1685366184,
542.0499878,0.05557600781,
542.9400024,0.09019415826,
543.9699707,0.07916484028,
545,0.09669476002,
546.0200195,0.0345765911,
547.0499878,0.05301683769,
547.9400024,0.1048910692,
548.9699707,0.04853763059,
550,0.1088609397,
551.0200195,0.07816164196,
552.0499878,0.06207131967,
552.9400024,0.09723288566,
553.9699707,0.1503302157,
555,0.06766013801,
556.0200195,0.1131824255,
557.0499878,0.1573865563,
557.9400024,0.09330227971,
558.9699707,0.1163939163,
560,0.1301283985,
561.0200195,0.0695412606,
562.0499878,0.1327826828,
562.9400024,0.09773425013,
563.9699707,0.0512843281,
565,0.03942868114,
566.0200195,0.0975632742,
567.0499878,0.08395713568,
567.9400024,0.1360553503,
568.9699707,0.0741237402,
570,0.04369468614,
571.0100098,0.02031666972,
572.0200195,0.1042388231,
573.039978,0.06418463588,
574.0499878,0.1113322824,
575.0700073,0.0233201962,
575.9400024,0.0602728352,
576.9500122,0.04680114239,
577.9699707,0.05143803731,
578.9799805,0.02717243694,
580,0.08298210055,
581.0200195,0.02394931018,
582.0499878,0.03944591805,
582.9400024,0.06142086908,
583.9699707,0.124284938,
585,0.05527190119,
586.0200195,0.01984350011,
587.0499878,0.04710410535,
587.9400024,0.04689787328,
588.9699707,0.03642239422,
590,0.1206248999,
591.0100098,0.01347150654,
592.0200195,0.08454772085,
593.039978,0.09178882837,
594.0499878,0.1161475852,
595.0700073,0.02406300418,
595.9400024,0.09478768706,
596.9500122,0.07410751283,
597.9699707,0.09129857272,
598.9799805,0.04296768084,
600,0.1041201353,
601.0100098,0.006954465993,
602.0200195,0.1167393625,
603.039978,0.08860685676,
604.0499878,0.0857468918,
605.0700073,0.1081727892,
605.9400024,0.1081051901,
606.9500122,0.06910396367,
607.9699707,0.1307470053,
608.9799805,0.1020109802,
610,0.06339208037,
611.0100098,0.1322401464,
612.0200195,0.1448230892,
613.039978,0.1500170082,
614.0499878,0.1092079356,
615.0700073,0.08177172393,
615.9400024,0.1112981588,
616.9500122,0.08127079904,
617.9699707,0.1440447867,
618.9799805,0.06064894423,
620,0.1567131132,
621.0100098,0.1524033993,
622.0200195,0.1345247775,
623.039978,0.1272332668,
624.0499878,0.1121514365,
625.0700073,0.05536485463,
625.9400024,0.09297383577,
626.9500122,0.1387294531,
627.9699707,0.1812938303,
628.9799805,0.1221618578,
630,0.08933817595,
631,0.1648566127,
632,0.1296128929,
633,0.1327320635,
634,0.03648908809,
635,0.07018364966,
636,0.1099175662,
637,0.04380526394,
638,0.03699879348,
639,0.06048956141,
640,0.08563110232,
641.0100098,0.06757258624,
642.0200195,0.05444473028,
643.039978,0.1030078307,
644.0499878,0.1187981591,
645.0700073,0.1543453038,
645.9400024,0.1276118457,
646.9500122,0.1731736958,
647.9699707,0.1280136555,
648.9799805,0.1351186931,
650,0.1457399875,
651,0.2234523445,
652,0.5055294633,
653,0.8932363987,
654,1.527931929,
655,2.613795519,
656,4.138542175,
657,6.118060112,
658,8.234604836,
659,10.72391605,
660,13.57756233,
661,16.00219536,
662,18.18543053,
663,19.51104927,
664,20.15234947,
665,20.15255737,
666,19.39505196,
667,17.95730972,
668,15.54203892,
669,12.47421837,
670,9.767378807,
670.9799805,6.575109482,
671.9699707,4.445151806,
672.9500122,2.845535517,
673.9400024,1.616658807,
675.0700073,0.8446004987,
676.0499878,0.5515381694,
677.039978,0.5020377636,
678.0200195,0.5297353268,
679.0100098,0.475135684,
680,0.5475844145,
681,0.508818388,
682,0.6316475868,
683,0.6449409723,
684,0.7280297875,
685,0.7978798151,
686,0.7442569137,
687,0.8655833602,
688,0.8786351085,
689,1.009019017,
690,1.044878364,
690.9799805,1.073843837,
691.9699707,1.160759926,
692.9500122,1.25179708,
693.9400024,1.293405294,
695.0700073,1.533123016,
696.0499878,1.584791422,
697.039978,1.598100543,
698.0200195,1.695852637,
699.0100098,1.761768579,
700,1.843302608,
700.9799805,1.897944212,
701.9699707,1.999872923,
702.9500122,2.157730818,
703.9400024,2.01779294,
705.0700073,2.237404823,
706.0499878,2.237183571,
707.039978,2.207568645,
708.0200195,2.073940992,
709.0100098,2.085371494,
710,2.112252235,
710.9799805,2.200296402,
711.9699707,2.004559755,
712.9500122,2.039012432,
713.9400024,2.032135487,
715.0700073,1.97986865,
716.0499878,1.911469102,
717.039978,1.994424939,
718.0200195,1.929888606,
719.0100098,1.957484722,
720,1.881936073,
720.9699707,1.897912025,
721.9400024,2.001881838,
723.0499878,1.999098063,
724.0200195,1.827973843,
725,1.86246419,
725.9699707,2.028925657,
726.9400024,2.01213336,
728.0499878,1.981901526,
729.0200195,2.009255409,
730,1.883112431,
730.9799805,1.996862411,
731.9699707,1.927387476,
732.9500122,1.947988749,
733.9400024,1.983357549,
735.0700073,1.97216475,
736.0499878,2.055238724,
737.039978,2.004537582,
738.0200195,1.953507066,
739.0100098,1.900966406,
740,1.950150371,
740.9500122,1.881917238,
742.0499878,1.867937803,
743.0100098,1.804030061,
743.9699707,1.77316761,
745.0599976,1.796266437,
746.0200195,1.787127376,
746.9799805,1.61546576,
747.9400024,1.677731156,
749.039978,1.575331688,
750,1.550605178,

Sample 4,
Sample 4
Collection Time: 15/08/2023 1:36:04 PM
Operator Name  :
Scan Software Version: 1.2(147)
Parameter List :
Instrument                        Cary Eclipse
Instrument Serial Number          test
Data mode                         Fluorescence
Scan mode                         Emission
X Mode                            Wavelength (nm)
Start (nm)                        340.00
Stop (nm)                         750.00
Ex. Wavelength (nm)               330.00
Ex. Slit (nm)                     5
Em. Slit (nm)                     5
Scan rate (nm/min)                120.00
Data interval (nm)                1.0000
Averaging Time (s)                0.5000
Excitation filter                 Auto
Emission filter                   Open
PMT voltage (V)                   Medium
Corrected spectra                 OFF
Method Log     :
Method Name    : Default
Date/Time stamp: 15/08/2023 1:30:02 PM
Method Modifications:
Overlayed Graphs Changed: 15/08/2023 1:30:29 PM, Old:OFF, New:ON
Excitation Wavelength Changed: 15/08/2023 1:30:29 PM, Old: 350.00, New: 330.00
Emission Wavelength Changed: 15/08/2023 1:30:29 PM, Old: 400.00, New: 340.00
Stop Wavelength Changed: 15/08/2023 1:30:29 PM, Old: 600.00, New: 750.00
Scan Control Changed: 15/08/2023 1:31:45 PM, Old:Medium, New:Slow
Ave. time (s): Changed: 15/08/2023 1:31:45 PM, Old:0.10000, New:0.50000
End Method Modifications

