Sample 42,,
Wavelength (nm),Intensity (a.u.),
540,0.01727344282,
541.0200195,0.02817361802,
542.0499878,0.03927509487,
542.9400024,0.02865411714,
543.9699707,0.005842657294,
545,0.05165822804,
546.0200195,0.04588629305,
547.0499878,0.0639705956,
547.9400024,-0.005800699349,
548.9699707,0.02898819558,
550,0.005912086926,
551.0200195,0.05230763927,
552.0499878,0.0177152101,
552.9400024,0.02350604348,
553.9699707,-0.02366079949,
555,0.04093950242,
556.0200195,0.02334185317,
557.0499878,-0.01774454862,
557.9400024,0.01183291897,
558.9699707,0.06396910548,
560,0.05815373361,
561.0200195,0.02873034775,
562.0499878,0.03458193317,
562.9400024,0.06942958385,
563.9699707,0.06332903355,
565,-0.0116102891,
566.0200195,0.02923634835,
567.0499878,0.02328397147,
567.9400024,-0.01737005822,
568.9699707,0.04052802175,
570,-0.005800161045,
571.0100098,0.0582122989,
572.0200195,0.05193935707,
573.039978,-0.005739935208,
574.0499878,0.005721543916,
575.0700073,0.04066316038,
575.9400024,0.02338073775,
576.9500122,-0.005778543185,
577.9699707,0.02867843956,
578.9799805,0.01711224951,
580,-0.005790153518,
581.0200195,0.01155782025,
582.0499878,-0.02336885408,
582.9400024,0.01166330371,
583.9699707,-0.01163365599,
585,0.01818655804,
586.0200195,0.03465283662,
587.0499878,0.01749332249,
587.9400024,0.04032954946,
588.9699707,0,
590,-0.01726718061,
591.0100098,0.01159306057,
592.0200195,0.0229162015,
593.039978,0.02307457104,
594.0499878,-0.005754468497,
595.0700073,0.01156490576,
595.9400024,0.02862737514,
596.9500122,0.01703035831,
597.9699707,0.005803392269,
598.9799805,-0.01133350004,
600,0.0285929963,
601.0100098,0.02862770297,
602.0200195,0.0698921904,
603.039978,0.06332210451,
604.0499878,0.04625935107,
605.0700073,0.07419922203,
605.9400024,-0.01718941517,
606.9500122,0.07364896685,
607.9699707,-0.01700718887,
608.9799805,0.04013784602,
610,-0.005723639857,
611.0100098,0.02858433314,
612.0200195,-0.03417713195,
613.039978,0,
614.0499878,0.02283861116,
615.0700073,0,
615.9400024,0.01141793653,
616.9500122,0.0113788303,
617.9699707,0.04002813622,
618.9799805,0.01136124786,
620,0.06815509498,
621.0100098,0.05741285905,
622.0200195,-0.005751886405,
623.039978,0.03384037316,
624.0499878,0.06354047358,
625.0700073,0.02854369953,
625.9400024,0.04645221308,
626.9500122,0.1079110131,
627.9699707,0.06846423447,
628.9799805,0.06858631968,
630,0.08634385467,
631,0.0513754338,
632,0.05750365183,
633,0.02858858183,
634,-0.02281932719,
635,0.0170024652,
636,0.03415747732,
637,0,
638,0.0635092929,
639,0.05115525797,
640,0.0227838438,
641.0100098,0.05134817585,
642.0200195,-0.02288473397,
643.039978,0.005703790579,
644.0499878,-0.02289613336,
645.0700073,0.05731217191,
645.9400024,0.09221104532,
646.9500122,0.00573970424,
647.9699707,0.01153735258,
648.9799805,0.01137895882,
650,0.02870148793,
651,0.02302820981,
652,0,
653,0.05104877055,
654,-0.01718242466,
655,0.01792307384,
656,0.01158144604,
657,0,
658,0.01814443059,
659,-0.0230801627,
660,-0.01163704135,
661,-0.005716016982,
662,-0.005833523348,
663,0,
664,-0.01170343533,
665,-0.02907484025,
666,0.05300072208,
667,-0.02892932482,
668,0.01172222942,
669,0.01736151427,
670,-0.0176340919,
670.9799805,0.00578469364,
671.9699707,0.01168558747,
672.9500122,0.02334512211,
673.9400024,0.005836927798,
675.0700073,-0.02324392088,
676.0499878,-0.0302844923,
677.039978,-0.0181668438,
678.0200195,-0.03534380719,
679.0100098,0.01167937834,
680,0.0349383615,
681,-0.01169050578,
682,0.006025839131,
683,-0.01179523487,
684,0,
685,-0.01763741113,
686,-0.005739342421,
687,0.01738797873,
688,-0.01745007746,
689,-0.04136626795,
690,0.03473931178,
690.9799805,0.04655222595,
691.9699707,0.005805751309,
692.9500122,0,
693.9400024,0.01194343623,
695.0700073,-0.01743324474,
696.0499878,-0.05855417997,
697.039978,0.005748084281,
698.0200195,-0.01719532721,
699.0100098,-0.01732631773,
700,0.005744352937,
700.9799805,0.01748669706,
701.9699707,-0.0403823629,
702.9500122,0,
703.9400024,0.005789717194,
705.0700073,0.03530720249,
706.0499878,0.01155828871,
707.039978,0.03472342715,
708.0200195,-0.005774672609,
709.0100098,0.05375637487,
710,0.0176962968,
710.9799805,-0.01168743148,
711.9699707,0.03465684131,
712.9500122,-0.04143556207,
713.9400024,-0.005836791825,
715.0700073,0.02298071422,
716.0499878,0.01740371436,
717.039978,0.01162675768,
718.0200195,-0.01172642224,
719.0100098,0.02875430696,
720,-0.02929802053,
720.9699707,0.01156096067,
721.9400024,0.02289599925,
723.0499878,0.05747225508,
724.0200195,0.01722395793,
725,0.0403825976,
725.9699707,0.02866019309,
726.9400024,0.06327039003,
728.0499878,0,
729.0200195,0.0466102697,
730,0.05154934525,
730.9799805,-0.01735970564,
731.9699707,-0.03506434336,
732.9500122,0.06876712292,
733.9400024,-0.02349003032,
735.0700073,0.03471980989,
736.0499878,0.03423270211,
737.039978,-0.005810980219,
738.0200195,0.04011300579,
739.0100098,0.01769139059,
740,0.03447067365,
740.9500122,0.04037304968,
742.0499878,-0.01153708622,
743.0100098,0.02367676422,
743.9699707,-0.02906892262,
745.0599976,-0.04623288661,
746.0200195,-0.01140094921,
746.9799805,0.0116440868,
747.9400024,0.03457197174,
749.039978,-0.0470325388,
750,-0.01730423234,
750.9699707,-0.01828365214,
751.9400024,-0.01169529092,
753.0499878,0.04783887789,
754.0200195,-0.005823196378,
755,0.05800396577,
755.9699707,0.0289184507,
756.9400024,0.01744013838,
758.0499878,0.01761648804,
759.0200195,0.08175134659,
760,-0.005745343398,
760.9699707,0.005843374413,
761.9400024,0,
763.0499878,0,
764.0200195,0.08141096681,
765,0.01174915582,
765.9699707,-0.00597036304,
766.9400024,-0.03454609215,
768.0499878,-0.05215909705,
769.0200195,0.04061573371,
770,0.04621979594,
770.9500122,0.04642983526,
772.0499878,-0.0233379025,
773.0100098,0.05821467191,
773.9699707,-0.01161055826,
775.0599976,0.02327895723,
776.0200195,0.06319587678,
776.9799805,0.01157179754,
777.9400024,0.0409915261,
779.039978,0.01735649072,
780,0.05969293788,
780.9400024,-0.02948286943,
782.0200195,-0.005832910538,
782.9699707,-0.01160651539,
784.0499878,-0.05162059888,
785,0.04670742154,
785.9400024,0.03510496393,
787.0200195,-0.01151834801,
787.9699707,-0.03467125818,
789.0499878,0.05849800259,
790,0.02282037027,
790.9500122,-0.04629120603,
792.0499878,0.02306512371,
793.0100098,0.02322273515,
793.9699707,0,
795.0599976,-0.02879719809,
796.0200195,0.01733022183,
796.9799805,-0.01158332452,
797.9400024,0.01792414486,
799.039978,-0.01751313545,
800,0.04012174159,

Sample 42,
Sample 42
Collection Time: 4/05/2023 1:24:19 PM
Operator Name  :
Scan Software Version: 1.2(147)
Parameter List :
Instrument                        Cary Eclipse
Instrument Serial Number          test
Data mode                         Fluorescence
Scan mode                         Emission
X Mode                            Wavelength (nm)
Start (nm)                        540.00
Stop (nm)                         800.00
Ex. Wavelength (nm)               530.00
Ex. Slit (nm)                     5
Em. Slit (nm)                     5
Scan rate (nm/min)                600.00
Data interval (nm)                1.0000
Averaging Time (s)                0.1000
Excitation filter                 Auto
Emission filter                   Open
PMT voltage (V)                   Medium
Corrected spectra                 OFF
Method Log     :
Method Name    : Default
Date/Time stamp: 4/05/2023 11:12:11 AM
Method Modifications:
Overlayed Graphs Changed: 4/05/2023 11:16:19 AM, Old:OFF, New:ON
Excitation Wavelength Changed: 4/05/2023 11:16:19 AM, Old: 350.00, New: 339.00
Emission Wavelength Changed: 4/05/2023 11:16:19 AM, Old: 400.00, New: 349.00
Scan mode: Changed: 4/05/2023 11:17:29 AM, Old:Emission, New:Excitation
Excitation Wavelength Changed: 4/05/2023 11:17:29 AM, Old: 339.00, New: 220.00
Emission Wavelength Changed: 4/05/2023 11:17:29 AM, Old: 349.00, New: 374.00
Stop Wavelength Changed: 4/05/2023 11:17:29 AM, Old: 600.00, New: 364.00
Scan mode: Changed: 4/05/2023 11:18:46 AM, Old:Excitation, New:Emission
Excitation Wavelength Changed: 4/05/2023 11:18:46 AM, Old: 220.00, New: 337.00
Emission Wavelength Changed: 4/05/2023 11:18:46 AM, Old: 374.00, New: 347.00
Stop Wavelength Changed: 4/05/2023 11:18:46 AM, Old: 364.00, New: 600.00
Excitation Wavelength Changed: 4/05/2023 11:31:04 AM, Old: 337.00, New: 422.00
Emission Wavelength Changed: 4/05/2023 11:31:04 AM, Old: 347.00, New: 432.00
Stop Wavelength Changed: 4/05/2023 11:31:04 AM, Old: 600.00, New: 700.00
Scan mode: Changed: 4/05/2023 11:33:22 AM, Old:Emission, New:Excitation
User Delta Stop Changed: 4/05/2023 11:33:22 AM, Old: 450.00, New: 525.00
User Delta Increment Changed: 4/05/2023 11:33:22 AM, Old:  10.00, New:   0.15
Excitation Wavelength Changed: 4/05/2023 11:33:22 AM, Old: 422.00, New: 220.00
Emission Wavelength Changed: 4/05/2023 11:33:22 AM, Old: 432.00, New: 525.00
Stop Wavelength Changed: 4/05/2023 11:33:22 AM, Old: 700.00, New: 515.00
Scan mode: Changed: 4/05/2023 11:54:35 AM, Old:Excitation, New:Emission
Excitation Wavelength Changed: 4/05/2023 11:54:35 AM, Old: 220.00, New: 331.00
Emission Wavelength Changed: 4/05/2023 11:54:35 AM, Old: 525.00, New: 341.00
Stop Wavelength Changed: 4/05/2023 11:54:35 AM, Old: 515.00, New: 700.00
Scan mode: Changed: 4/05/2023 11:56:27 AM, Old:Emission, New:Excitation
Excitation Wavelength Changed: 4/05/2023 11:56:27 AM, Old: 331.00, New: 220.00
Emission Wavelength Changed: 4/05/2023 11:56:27 AM, Old: 341.00, New: 508.00
Stop Wavelength Changed: 4/05/2023 11:56:27 AM, Old: 700.00, New: 500.00
Scan mode: Changed: 4/05/2023 11:58:40 AM, Old:Excitation, New:Emission
Excitation Wavelength Changed: 4/05/2023 11:58:40 AM, Old: 220.00, New: 331.00
Emission Wavelength Changed: 4/05/2023 11:58:40 AM, Old: 508.00, New: 341.00
Stop Wavelength Changed: 4/05/2023 11:58:40 AM, Old: 500.00, New: 700.00
Excitation Wavelength Changed: 4/05/2023 12:04:52 PM, Old: 331.00, New: 469.00
Emission Wavelength Changed: 4/05/2023 12:04:52 PM, Old: 341.00, New: 479.00
Scan mode: Changed: 4/05/2023 12:08:27 PM, Old:Emission, New:Excitation
User Delta Stop Changed: 4/05/2023 12:08:27 PM, Old: 525.00, New: 529.00
Excitation Wavelength Changed: 4/05/2023 12:08:27 PM, Old: 469.00, New: 220.00
Emission Wavelength Changed: 4/05/2023 12:08:27 PM, Old: 479.00, New: 529.00
Stop Wavelength Changed: 4/05/2023 12:08:27 PM, Old: 700.00, New: 519.00
User Delta Stop Changed: 4/05/2023 12:09:21 PM, Old: 529.00, New: 560.00
Emission Wavelength Changed: 4/05/2023 12:09:21 PM, Old: 529.00, New: 560.00
Stop Wavelength Changed: 4/05/2023 12:09:21 PM, Old: 519.00, New: 550.00
Scan mode: Changed: 4/05/2023 12:18:01 PM, Old:Excitation, New:Emission
Excitation Wavelength Changed: 4/05/2023 12:18:01 PM, Old: 220.00, New: 550.00
Stop Wavelength Changed: 4/05/2023 12:18:01 PM, Old: 550.00, New: 800.00
Scan mode: Changed: 4/05/2023 12:19:22 PM, Old:Emission, New:Excitation
User Delta Stop Changed: 4/05/2023 12:19:22 PM, Old: 560.00, New: 631.00
Excitation Wavelength Changed: 4/05/2023 12:19:22 PM, Old: 550.00, New: 220.00
Emission Wavelength Changed: 4/05/2023 12:19:22 PM, Old: 560.00, New: 631.00
Stop Wavelength Changed: 4/05/2023 12:19:22 PM, Old: 800.00, New: 621.00
User Delta Stop Changed: 4/05/2023 12:23:23 PM, Old: 631.00, New: 660.00
Emission Wavelength Changed: 4/05/2023 12:23:23 PM, Old: 631.00, New: 660.00
Stop Wavelength Changed: 4/05/2023 12:23:23 PM, Old: 621.00, New: 650.00
Scan mode: Changed: 4/05/2023 12:26:00 PM, Old:Excitation, New:Emission
Excitation Wavelength Changed: 4/05/2023 12:26:00 PM, Old: 220.00, New: 525.00
Emission Wavelength Changed: 4/05/2023 12:26:00 PM, Old: 660.00, New: 530.00
Stop Wavelength Changed: 4/05/2023 12:26:00 PM, Old: 650.00, New: 800.00
Excitation Wavelength Changed: 4/05/2023 12:39:36 PM, Old: 525.00, New: 366.00
Emission Wavelength Changed: 4/05/2023 12:39:36 PM, Old: 530.00, New: 376.00
Stop Wavelength Changed: 4/05/2023 12:39:36 PM, Old: 800.00, New: 600.00
Excitation Wavelength Changed: 4/05/2023 12:40:53 PM, Old: 366.00, New: 344.00
Emission Wavelength Changed: 4/05/2023 12:40:53 PM, Old: 376.00, New: 354.00
Stop Wavelength Changed: 4/05/2023 12:40:53 PM, Old: 600.00, New: 650.00
Scan mode: Changed: 4/05/2023 12:42:47 PM, Old:Emission, New:Excitation
Excitation Wavelength Changed: 4/05/2023 12:42:47 PM, Old: 344.00, New: 220.00
Emission Wavelength Changed: 4/05/2023 12:42:47 PM, Old: 354.00, New: 480.00
Stop Wavelength Changed: 4/05/2023 12:42:47 PM, Old: 650.00, New: 470.00
Emission Wavelength Changed: 4/05/2023 12:43:13 PM, Old: 480.00, New: 490.00
Stop Wavelength Changed: 4/05/2023 12:43:13 PM, Old: 470.00, New: 480.00
Scan mode: Changed: 4/05/2023 12:53:38 PM, Old:Excitation, New:Emission
Excitation Wavelength Changed: 4/05/2023 12:53:38 PM, Old: 220.00, New: 350.00
Emission Wavelength Changed: 4/05/2023 12:53:38 PM, Old: 490.00, New: 360.00
Stop Wavelength Changed: 4/05/2023 12:53:38 PM, Old: 480.00, New: 600.00
Stop Wavelength Changed: 4/05/2023 12:54:11 PM, Old: 600.00, New: 650.00
Scan mode: Changed: 4/05/2023 12:56:32 PM, Old:Emission, New:Excitation
Excitation Wavelength Changed: 4/05/2023 12:56:32 PM, Old: 350.00, New: 220.00
Emission Wavelength Changed: 4/05/2023 12:56:32 PM, Old: 360.00, New: 500.00
Stop Wavelength Changed: 4/05/2023 12:56:32 PM, Old: 650.00, New: 490.00
Emission Wavelength Changed: 4/05/2023 12:57:14 PM, Old: 500.00, New: 480.00
Stop Wavelength Changed: 4/05/2023 12:57:14 PM, Old: 490.00, New: 470.00
Scan mode: Changed: 4/05/2023 1:22:57 PM, Old:Excitation, New:Emission
Excitation Wavelength Changed: 4/05/2023 1:22:57 PM, Old: 220.00, New: 540.00
Emission Wavelength Changed: 4/05/2023 1:22:57 PM, Old: 480.00, New: 550.00
Stop Wavelength Changed: 4/05/2023 1:22:57 PM, Old: 470.00, New: 800.00
Excitation Wavelength Changed: 4/05/2023 1:23:17 PM, Old: 540.00, New: 530.00
Emission Wavelength Changed: 4/05/2023 1:23:17 PM, Old: 550.00, New: 540.00
End Method Modifications

