Sample 28,,
Wavelength (nm),Intensity (a.u.),
220,0.705196023,
220.9299927,0.1988862306,
222.0299988,0,
222.9600067,-0.2032024711,
224.0599976,0.2668717802,
225,0.5010837317,
225.9299927,0.5184078217,
227.0299988,0.3289646804,
227.9600067,0.1778766066,
229.0599976,0.155134216,
230,0.29697752,
230.9299927,0.2327181399,
232.0299988,0.240138948,
232.9600067,0.2555432022,
234.0599976,0.1796600074,
235,0.2335457802,
235.9299927,0.3493305445,
237.0299988,0.2257094979,
237.9600067,0.1545875072,
239.0599976,0.1459820718,
240,0.1007740945,
240.9299927,0.118588008,
242.0299988,0.1311888397,
242.9600067,0.1135733724,
244.0599976,0.06201342493,
245,0.0947278142,
245.9299927,0.08248696476,
247.0299988,0.06859226525,
247.9600067,0.08944290131,
249.0599976,0.09570628405,
250,0.1136630997,
250.9299927,0.1384916306,
252.0299988,0.1243993938,
252.9600067,0.1108977869,
254.0599976,0.03530300409,
255,0.1241127625,
255.9299927,0.2109736949,
257.0299988,0.1144603193,
257.9599915,0.1698706746,
259.0599976,0.126551196,
260,0.1373911947,
261.0700073,0.1460880637,
262,0.1099509895,
263.0700073,0.1334376782,
264,0.1885907352,
265.0700073,0.1979876012,
266,0.2086186111,
267.0700073,0.1845462322,
268,0.2392416,
269.0700073,0.2249445021,
270,0.2103384733,
270.9299927,0.2508900762,
272.0299988,0.2210867703,
272.9599915,0.196159631,
274.0599976,0.2162640989,
275,0.2562424541,
275.9299927,0.221212104,
277.0299988,0.2356849313,
277.9599915,0.2216994464,
279.0599976,0.2091537863,
280,0.2364610732,
280.9299927,0.2478324771,
282.0299988,0.2498880178,
282.9599915,0.2562122643,
284.0599976,0.1807133704,
285,0.2165061235,
285.9299927,0.2001017779,
287.0299988,0.183917433,
287.9599915,0.1694666892,
289.0599976,0.1741720587,
290,0.2121895552,
291.0700073,0.2524502873,
292,0.3690572679,
293.0700073,0.5440891385,
294,0.6117418408,
295.0700073,0.6087421179,
296,0.572721839,
297.0700073,0.441354394,
298,0.3190105855,
299.0700073,0.2037578821,
300,0.1711485833,
300.9299927,0.127471596,
302.0299988,0.1497968882,
302.9599915,0.140378654,
304.0599976,0.05859384313,
305,0.1281403303,
305.9299927,0.1368159801,
307.0299988,0.1304829419,
307.9599915,0.1204737499,
309.0599976,0.1220530197,
310,0.1529302895,
311.0700073,0.1618311107,
312,0.1604460031,
313.0700073,0.1622080356,
314,0.1545287371,
315.0700073,0.08202169836,
316,0.1521407068,
317.0700073,0.2353720963,
318,0.6032013893,
319.0700073,2.03454423,
320,4.562729836,
321.0700073,7.48737812,
322,9.720851898,
323.0700073,10.30453396,
324,9.459508896,
325.0700073,7.165755749,
326,4.629351616,
327.0700073,2.059846878,
328,0.877933085,
329.0700073,0.2625728548,
330,0.09327789396,
330.9299927,0.006782880053,
332.0299988,0.121792078,
332.9599915,0.05773416907,
334.0599976,0.06368401647,
335,0.07149106264,
335.9299927,0.1069854647,
337.0299988,0.0268566329,
337.9599915,0.06938638538,
339.0599976,0.01353459246,
340,0.0267665945,
341.0700073,0,
342,0.06128320843,
343.0700073,-0.01926887408,
344,0.02094817534,
345.0700073,0.03587776423,
346,0.08490277082,
347.0700073,0.06330616772,
348,0.06161908805,
349.0700073,0.02515952662,
350,0.05208764225,
351.0700073,-0.01153169759,
352,0.06282698363,
353.0700073,0.06543697417,
354,-0.01243066788,
355.0700073,-0.05432334542,
356,0.02790322341,
357.0700073,0.003913687542,
358,0.05009964481,
359.0700073,0.001717720181,
360,0.003419341054,
361.0700073,0.04043916985,
362,0.04410851374,
363.0700073,0.04382621869,
364,0.01799697615,
365.0700073,0.03349268436,
366,0.06641366333,
367.0700073,0.0193257723,
368,0.05845147371,
369.0700073,-0.009768224321,
370,0.006973517127,
371.0599976,0.05424231663,
371.9599915,-0.01124677248,
373.0299988,0.05299428478,
373.9299927,0.02080957592,
375,0.05007897317,
376.0599976,0.02859910019,
376.9599915,0.07083088905,
378.0299988,0.02043382823,
378.9299927,0.03026474081,
380,0.02882049233,
381.0700073,0.02697853744,
382,0.02690357156,
383.0700073,0.05796156079,
384,0.02975461259,
385.0700073,0.01710509881,
386,0.04167382047,
387.0700073,0.01327602472,
388,0.05118182302,
389.0700073,0.03759422153,
390,0.02667172439,
391.0700073,0.02576120757,
392,0.01646851934,
393.0700073,0.0238355305,
394,0.03941496834,
395.0700073,0.02450729534,
396,-0.01864993013,
397.0700073,0.01251899358,
398,0.02785528265,
399.0700073,0.01837990433,
400,0.04242898524,
401.0599976,0.04239933193,
401.9599915,0.03140124679,
403.0299988,0.01070982032,
403.9299927,0.02257861011,
405,0,
406.0599976,0.02775399014,
406.9599915,0.02917597629,
408.0299988,0.03181070462,
408.9299927,0,
410,0.02094339393,
411.0700073,-0.01025984343,
412,-0.009067662992,
413.0700073,0.0341970101,
414,0.03891883418,
415.0700073,0.01483270805,
416,0.01659862883,
417.0700073,-0.009827702306,
418,-0.005495734978,
419.0700073,0.003660927759,
420,0.008836317807,
421.0599976,0.003977366257,
421.9599915,-0.006489511579,
423.0299988,0.005216889083,
423.9299927,-0.0006598168402,
425,-0.00277595222,
426.0599976,-0.001457138686,
426.9599915,-0.004012741148,
428.0299988,-0.01827143505,
428.9299927,0.003519890364,
430,-0.01788468845,
431.0599976,0.005309518427,
431.9599915,-0.006230907049,
433.0299988,0.01368916035,
433.9299927,-0.01740469784,
435,-0.003494118107,
436.0599976,0.003378503723,
436.9599915,-0.0187369585,
438.0299988,0.01241083816,
438.9299927,-0.009649692103,
440,0.00709686242,
441.0599976,0.01359538175,
441.9599915,-0.01227209438,
443.0299988,0.0007673996151,
443.9299927,-0.008954962716,
445,0.006775322836,
446.0599976,-0.004430866335,
446.9599915,-0.008911451325,
448.0299988,-0.01158736926,
448.9299927,-0.0007885838277,
450,0.002598637715,
451.0599976,0.001780206687,
451.9599915,0.01128730737,
453.0299988,0.01353169512,
453.9299927,0.01368086692,
455,0.02676863968,
456.0599976,0.0314768739,
456.9599915,0.0139292581,
458.0299988,-0.0009182795766,
458.9299927,-0.01230879594,
460,0.009123172611,
461.0599976,-0.0009436276741,
461.9599915,-0.00200772169,
463.0299988,0.02266540751,
463.9299927,0.01142945979,
465,-0.02139438502,
466.0599976,0.009005011059,
466.9599915,0.01415406354,
468.0299988,0.01978312433,
468.9299927,0,
470,0.02826415747,
471.0400085,-0.005734471139,
471.9400024,0.002958185971,
472.980011,0.01379358955,
474.019989,0.008918896317,
475.0700073,0.02430141158,
475.9700012,0.00763668865,
477.0100098,0.02891053073,
478.0499878,0.01894295402,
478.9500122,0.001433701953,
480,0.01951002888,
481.0599976,0.01037186198,
481.9599915,-0.001875475864,
483.0299988,-0.003322940785,
483.9299927,0.007836708799,
485,-0.01774955168,
486.0599976,-0.0115059102,
486.9599915,-0.008470047265,
488.0299988,0.003530418966,
488.9299927,0.01327713951,
490,-0.01261283644,
491.0400085,0.02665904537,
491.9400024,0.009934553877,
492.980011,0.005070453975,
494.019989,0.01645679772,
495.0700073,0.02886761539,
495.9700012,0.00320524117,
497.0100098,0.02698704787,
498.0499878,-0.01057246421,
498.9500122,0.009048267268,
500,0.009481853805,
501.0599976,0.0140985772,
501.9599915,0.02295032702,
503.0299988,0,
503.9299927,0.01262047328,
505,0.02507810853,
506.0599976,0.04377954826,
506.9599915,0.0410338901,
508.0299988,-0.01859942079,
508.9299927,0.02033400536,
510,0.009985261597,
511.0400085,0.03589089215,
511.9400024,0.05940370634,
512.9799805,0.02240873687,
514.0200195,0.02416382916,
515.0700073,0.01010989491,
515.9699707,0.0117232604,
517.0100098,0.01889983937,
518.0499878,0.04855384305,
518.9500122,0.03387080878,
520,0.005502194632,
521.039978,0.04344746098,
521.9400024,0.005846620072,
522.9799805,0.05146494135,
524.0200195,0.01772292331,
525.0700073,0.03207040206,
525.9699707,0.02152772062,
527.0100098,0.01589635573,
528.0499878,0.01617130637,
528.9500122,0.02253120393,
530,0.024970809,
531.0200195,0.00759119913,
532.0499878,0.03336616606,
532.9400024,0.04906497151,
533.9699707,-0.01600854471,
535,-0.01546819136,
536.0200195,0.02269367315,
537.0499878,0.05747248977,
537.9400024,0.03890142217,
538.9699707,0.01524274144,
540,0.0260105934,
541.039978,0.03663383797,
541.9400024,0.0361710526,
542.9799805,0.05531095713,
544.0200195,0.0681579411,
545.0700073,0.1063835546,
545.9699707,0.1214450374,
547.0100098,0.06240431592,
548.0499878,0.105415307,
548.9500122,0.08723828942,
550,0.06344880164,
551.0200195,0.1071435809,
552.0499878,0.06744729728,
552.9400024,0.02129802294,
553.9699707,-0.0341585204,
555,0.003219502512,
556.0200195,0.02992021292,
557.0499878,0.0359284468,
557.9400024,0.06550099701,
558.9699707,0.1173691675,
560,0.007469012868,
561.039978,0.01483041421,
561.9400024,0.08497651666,
562.9799805,0.06495475024,
564.0200195,-0.01057898812,
565.0700073,0.06270575523,
565.9699707,0,
567.0100098,-0.006721785292,
568.0499878,0.06696309149,
568.9500122,0.02700431086,
570,0,
571.0200195,0.02609696984,
572.0499878,-0.009619886056,
572.9400024,0.04089285061,
573.9699707,-0.009579186328,
575,0.0363458544,
576.0200195,-0.01024016645,
577.0499878,0.08184819669,
577.9400024,-0.01484356727,
578.9699707,0.0358568579,
580,0.12774764,
581.0200195,0.004500207026,
582.0499878,0.0597833097,
582.9400024,0.0467136912,
583.9699707,0.06673117727,
585,0.06195196509,
586.0200195,0.1192588732,
587.0499878,0.05109363794,
587.9400024,0.0273388382,
588.9699707,0.04087360576,
590,0.06871624291,
591.0200195,0.08439193666,
592.0499878,0.1204292625,
592.9400024,0.03042525984,
593.9699707,-0.01265059505,
595,-0.04438920692,
596.0200195,0.09067648649,
597.0499878,0.09960464388,
597.9400024,0.007965525612,
598.9699707,0.06006054208,
600,0.08089444041,
601.0100098,-0.03015590645,
602.0200195,0.04238078371,
603.039978,0.01224000193,
604.0499878,0.04232788086,
605.0700073,0.05148686469,
605.9400024,0.03022551909,
606.9500122,0.05466273054,
607.9699707,0.1054675132,
608.9799805,0.004174895119,
610,0.0861812681,
611.0200195,0.02157953568,
612.0499878,0.01857303269,
612.9400024,0.1679986566,
613.9699707,0,
615,0.09956908971,
616.0200195,-0.02280540764,
617.0499878,0.0926682055,
617.9400024,0.05816219002,
618.9699707,-0.03623407334,
620,-0.02408448979,
621.0100098,0.03558254614,
622.0200195,0.08493290097,
623.039978,0.01757767797,
624.0499878,-0.01146250125,
625.0700073,0.0886849165,
625.9400024,0,
626.9500122,0.02104410343,
627.9699707,-0.01605720632,
628.9799805,0.1399919242,
630,0.1072555557,
631.0100098,0.1349876076,
632.0200195,-0.01206629258,
633.039978,0.1044437736,
634.0499878,0.006216083653,
635.0700073,0,
635.9400024,0.1559656858,
636.9500122,0.1256646961,
637.9699707,0,
638.9799805,0.11293374,
640,0.12622419,

Sample 28,
Sample 28
Collection Time: 22/08/2023 1:24:39 PM
Operator Name  :
Scan Software Version: 1.2(147)
Parameter List :
Instrument                        Cary Eclipse
Instrument Serial Number          test
Data mode                         Fluorescence
Scan mode                         Excitation
X Mode                            Wavelength (nm)
Start (nm)                        220.00
Stop (nm)                         640.00
Em. Wavelength (nm)               650.00
Ex. Slit (nm)                     5
Em. Slit (nm)                     5
Scan rate (nm/min)                120.00
Data interval (nm)                1.0000
Averaging Time (s)                0.5000
Excitation filter                 Auto
Emission filter                   Open
PMT voltage (V)                   Medium
Corrected spectra                 OFF
Method Log     :
Method Name    : Default
Date/Time stamp: 22/08/2023 11:38:10 AM
Method Modifications:
Overlayed Graphs Changed: 22/08/2023 11:47:15 AM, Old:OFF, New:ON
Scan Control Changed: 22/08/2023 11:47:15 AM, Old:Medium, New:Slow
Ave. time (s): Changed: 22/08/2023 11:47:15 AM, Old:0.10000, New:0.50000
Excitation Wavelength Changed: 22/08/2023 11:47:15 AM, Old: 350.00, New: 340.00
Emission Wavelength Changed: 22/08/2023 11:47:15 AM, Old: 400.00, New: 350.00
Stop Wavelength Changed: 22/08/2023 11:47:15 AM, Old: 600.00, New: 750.00
Excitation Wavelength Changed: 22/08/2023 11:48:29 AM, Old: 340.00, New: 378.00
Emission Wavelength Changed: 22/08/2023 11:48:29 AM, Old: 350.00, New: 390.00
PMT Volts Changed: 22/08/2023 11:52:22 AM, Old:600, New:800
Emission PMT (V): Changed: 22/08/2023 11:52:22 AM, Old: 600, New: 800
Scan mode: Changed: 22/08/2023 11:59:48 AM, Old:Emission, New:Excitation
User Delta Stop Changed: 22/08/2023 11:59:48 AM, Old: 450.00, New: 483.00
User Delta Increment Changed: 22/08/2023 11:59:48 AM, Old:  10.00, New:   0.15
Excitation Wavelength Changed: 22/08/2023 11:59:48 AM, Old: 378.00, New: 220.00
Emission Wavelength Changed: 22/08/2023 11:59:48 AM, Old: 390.00, New: 483.00
Stop Wavelength Changed: 22/08/2023 11:59:48 AM, Old: 750.00, New: 373.00
Stop Wavelength Changed: 22/08/2023 12:02:41 PM, Old: 373.00, New: 473.00
PMT Volts Changed: 22/08/2023 12:08:26 PM, Old:800, New:600
Emission PMT (V): Changed: 22/08/2023 12:08:26 PM, Old: 800, New: 600
Scan mode: Changed: 22/08/2023 12:08:56 PM, Old:Excitation, New:Emission
Excitation Wavelength Changed: 22/08/2023 12:08:56 PM, Old: 220.00, New: 325.00
Emission Wavelength Changed: 22/08/2023 12:08:56 PM, Old: 483.00, New: 335.00
Stop Wavelength Changed: 22/08/2023 12:08:56 PM, Old: 473.00, New: 750.00
Scan mode: Changed: 22/08/2023 12:18:15 PM, Old:Emission, New:Excitation
User Delta Stop Changed: 22/08/2023 12:18:15 PM, Old: 483.00, New: 500.00
Excitation Wavelength Changed: 22/08/2023 12:18:15 PM, Old: 325.00, New: 220.00
Emission Wavelength Changed: 22/08/2023 12:18:15 PM, Old: 335.00, New: 500.00
Stop Wavelength Changed: 22/08/2023 12:18:15 PM, Old: 750.00, New: 490.00
Scan mode: Changed: 22/08/2023 12:25:59 PM, Old:Excitation, New:Emission
Excitation Wavelength Changed: 22/08/2023 12:25:59 PM, Old: 220.00, New: 400.00
Emission Wavelength Changed: 22/08/2023 12:25:59 PM, Old: 500.00, New: 410.00
Stop Wavelength Changed: 22/08/2023 12:25:59 PM, Old: 490.00, New: 750.00
Scan mode: Changed: 22/08/2023 12:35:24 PM, Old:Emission, New:Excitation
Excitation Wavelength Changed: 22/08/2023 12:35:24 PM, Old: 400.00, New: 410.00
Emission Wavelength Changed: 22/08/2023 12:35:24 PM, Old: 410.00, New: 400.00
User Delta Stop Changed: 22/08/2023 12:35:35 PM, Old: 500.00, New: 520.00
Excitation Wavelength Changed: 22/08/2023 12:35:35 PM, Old: 410.00, New: 220.00
Emission Wavelength Changed: 22/08/2023 12:35:35 PM, Old: 400.00, New: 520.00
Stop Wavelength Changed: 22/08/2023 12:35:35 PM, Old: 750.00, New: 510.00
Scan mode: Changed: 22/08/2023 12:41:42 PM, Old:Excitation, New:Emission
Excitation Wavelength Changed: 22/08/2023 12:41:42 PM, Old: 220.00, New: 330.00
Emission Wavelength Changed: 22/08/2023 12:41:42 PM, Old: 520.00, New: 340.00
Stop Wavelength Changed: 22/08/2023 12:41:42 PM, Old: 510.00, New: 650.00
Scan mode: Changed: 22/08/2023 12:49:06 PM, Old:Emission, New:Excitation
Excitation Wavelength Changed: 22/08/2023 12:49:06 PM, Old: 330.00, New: 220.00
Emission Wavelength Changed: 22/08/2023 12:49:06 PM, Old: 340.00, New: 400.00
Stop Wavelength Changed: 22/08/2023 12:49:06 PM, Old: 650.00, New: 390.00
Scan mode: Changed: 22/08/2023 12:53:51 PM, Old:Excitation, New:Emission
Excitation Wavelength Changed: 22/08/2023 12:53:51 PM, Old: 220.00, New: 460.00
Emission Wavelength Changed: 22/08/2023 12:53:51 PM, Old: 400.00, New: 470.00
Stop Wavelength Changed: 22/08/2023 12:53:51 PM, Old: 390.00, New: 800.00
Scan mode: Changed: 22/08/2023 1:05:37 PM, Old:Emission, New:Excitation
User Delta Stop Changed: 22/08/2023 1:05:37 PM, Old: 520.00, New: 540.00
Excitation Wavelength Changed: 22/08/2023 1:05:37 PM, Old: 460.00, New: 220.00
Emission Wavelength Changed: 22/08/2023 1:05:37 PM, Old: 470.00, New: 540.00
Stop Wavelength Changed: 22/08/2023 1:05:37 PM, Old: 800.00, New: 530.00
User Delta Stop Changed: 22/08/2023 1:08:47 PM, Old: 540.00, New: 600.00
Excitation Wavelength Changed: 22/08/2023 1:08:47 PM, Old: 220.00, New: 400.00
Emission Wavelength Changed: 22/08/2023 1:08:47 PM, Old: 540.00, New: 600.00
Stop Wavelength Changed: 22/08/2023 1:08:47 PM, Old: 530.00, New: 590.00
Scan mode: Changed: 22/08/2023 1:13:41 PM, Old:Excitation, New:Emission
Excitation Wavelength Changed: 22/08/2023 1:13:41 PM, Old: 400.00, New: 470.00
Emission Wavelength Changed: 22/08/2023 1:13:41 PM, Old: 600.00, New: 480.00
Stop Wavelength Changed: 22/08/2023 1:13:41 PM, Old: 590.00, New: 800.00
Scan mode: Changed: 22/08/2023 1:20:43 PM, Old:Emission, New:Excitation
User Delta Stop Changed: 22/08/2023 1:20:43 PM, Old: 600.00, New: 650.00
Excitation Wavelength Changed: 22/08/2023 1:20:43 PM, Old: 470.00, New: 220.00
Emission Wavelength Changed: 22/08/2023 1:20:43 PM, Old: 480.00, New: 650.00
Stop Wavelength Changed: 22/08/2023 1:20:43 PM, Old: 800.00, New: 640.00
End Method Modifications

