Sample 5,,
Wavelength (nm),Intensity (a.u.),
280,0.2195328921,
280.9299927,0.1900046319,
282.0299988,0.1783761233,
282.9599915,0.1865688264,
284.0599976,0.1771847457,
285,0.2250388861,
285.9299927,0.214022845,
287.0299988,0.176118657,
287.9599915,0.2111932337,
289.0599976,0.1838560253,
290,0.2115863115,
291.0700073,0.5209597349,
292,1.006674528,
293.0700073,2.116074324,
294,3.127808332,
295.0700073,4.454856396,
296,5.415332317,
297.0700073,5.964892864,
298,6.071065903,
299.0700073,5.49863863,
300,4.976780415,
300.9299927,4.035155296,
302.0299988,3.061095953,
302.9599915,2.425008774,
304.0599976,1.903108597,
305,1.439804077,
305.9299927,1.15139401,
307.0299988,0.9211336374,
307.9599915,0.8337718844,
309.0599976,0.8365831971,
310,0.6947553754,
311.0700073,0.7157383561,
312,0.6202329397,
313.0700073,0.6084692478,
314,0.5549853444,
315.0700073,0.4251154959,
316,0.4299495518,
317.0700073,0.732213676,
318,1.926811934,
319.0700073,6.246425629,
320,13.36441803,
321.0700073,21.9741478,
322,26.46847153,
323.0700073,26.74733162,
324,23.92397499,
325.0700073,16.53634453,
326,9.92713356,
327.0700073,3.847318172,
328,1.587723374,
329.0700073,0.4754352868,
330,0.2310032845,
330.9299927,0.1758482307,
332.0299988,0.1481309682,
332.9599915,0.1476436406,
334.0599976,0.06906793267,
335,0.1046549231,
335.9299927,0.06876655668,
337.0299988,0.1175049767,
337.9599915,0.0748167038,
339.0599976,0.1028885096,
340,0.0351879485,
341.0700073,0.1842350066,
342,0.1098773628,
343.0700073,0.03318280354,
344,0.04831238836,
345.0700073,0.1155021638,
346,0.1097476706,
347.0700073,0.1391700059,
348,0.08158756793,
349.0700073,0.08892405033,
350,0.07914429903,
351.0700073,0.07904245704,
352,0.05948052183,
353.0700073,0.02507585473,
354,0.09274276346,
355.0700073,0.08578389883,
356,0.03113337792,
357.0700073,0.03215792775,
358,0.01965264976,
359.0700073,0.01018546056,
360,0.03131505102,
361.0700073,0.03053572401,
362,0.03488291055,
363.0700073,0.0338886939,
364,0.08012209833,
365.0700073,0.05534564331,
366,0.05856119469,
367.0700073,0.007077424321,
368,0.06580153108,
369.0700073,0.02585321479,
370,0.03747167811,
371.0599976,0.03759090602,
371.9599915,0.03833498433,
373.0299988,0.05481982231,
373.9299927,0,
375,-0.02272202261,
376.0599976,0.01784449071,
376.9599915,0.02111531049,
378.0299988,-0.01953430101,
378.9299927,0.02720663883,
380,0.05154866725,
381.0700073,0.03766167536,
382,0.0144548621,
383.0700073,0.007106512319,
384,0.03573859856,
385.0700073,0.02325531282,
386,0.009783140384,
387.0700073,0.01418269891,
388,0.004695856944,
389.0700073,0.007492848206,
390,-0.01458193548,
391.0700073,0.02221268974,
392,0.01493832469,
393.0700073,0.03693070263,
394,0.02312110364,
395.0700073,0.03091011941,
396,0.01151090674,
397.0700073,0.0299815461,
398,0.01621780172,
399.0700073,-0.006057733204,
400,0.0273207929,
401.0599976,0.01644917205,
401.9599915,0.006708293688,
403.0299988,0.02120598406,
403.9299927,0.01153180934,
405,0.01041935291,
406.0599976,0,
406.9599915,0.03622771427,
408.0299988,0.01270520501,
408.9299927,0.01917305402,
410,-0.01039683446,
411.0700073,0.003864993341,
412,0.001238491386,
413.0700073,-0.01770996116,
414,0.01688825898,
415.0700073,0.0287447758,
416,-0.00191855547,
417.0700073,-0.008525811136,
418,-0.003843693761,
419.0700073,0.005725663621,
420,-0.002705664141,
421.0599976,0.01143690012,
421.9599915,-0.009460319765,
423.0299988,-0.002563506132,
423.9299927,-0.005931776948,
425,-0.01023854502,
426.0599976,-0.01624169946,
426.9599915,-0.009355725721,
428.0299988,-0.02614623867,
428.9299927,-0.01010617428,
430,0.009451772086,
431.0599976,0.009789063595,
431.9599915,-0.005192377605,
433.0299988,-0.007825923152,
433.9299927,0.003431747202,
435,-0.006937687285,
436.0599976,-0.005790661089,
436.9599915,-0.004823212977,
438.0299988,0.001588489278,
438.9299927,0.001539171906,
440,0.01202757936,
441.0599976,0.008003364317,
441.9599915,-0.008096743375,
443.0299988,-0.00669017667,
443.9299927,-0.005000628997,
445,0,
446.0599976,0.005866569001,
446.9599915,-0.002891619224,
448.0299988,-0.0007596446667,
448.9299927,-0.002321375767,
450,-0.01575628482,
451.0599976,0.003428364871,
451.9599915,0.0009084417834,
453.0299988,0.01389058679,
453.9299927,0.01425553393,
455,0.01641552523,
456.0599976,0.02013521269,
456.9599915,0.009226351976,
458.0299988,-0.01307788957,
458.9299927,0.01206483692,
460,-0.00174910645,
461.0599976,-0.01081764232,
461.9599915,0.02050570957,
463.0299988,-0.01045488194,
463.9299927,0.0202844087,
465,0.008365830407,
466.0599976,0.04547641054,
466.9599915,0.02890460379,
468.0299988,0.02826826088,
468.9299927,0.02240417898,
470,-0.01226091292,
471.0400085,0.01697302982,
471.9400024,0.02260244638,
472.980011,0.013282937,
474.019989,-0.006023026071,
475.0700073,-0.004428743385,
475.9700012,0.04331341758,
477.0100098,0.02467795275,
478.0499878,-0.007015033159,
478.9500122,0.0293635577,
480,0.001200720901,
481.0599976,0.001008813037,
481.9599915,0.003610600252,
483.0299988,0.004863198381,
483.9299927,-0.00860711094,
485,-0.005392804276,
486.0599976,0.006992137525,
486.9599915,-0.005779244471,
488.0299988,0.001729405252,
488.9299927,-0.01015896071,
490,0.0009483086178,
491.0400085,0.009109108709,
491.9400024,0.01193190552,
492.980011,-0.001244087471,
494.019989,0.00537942443,
495.0700073,-0.004495419096,
495.9700012,0.007990169339,
497.0100098,0.001637363341,
498.0499878,-0.02391233109,
498.9500122,0.03181685135,
500,0.02831038088,
501.0599976,-0.02963677235,
501.9599915,-0.01798377931,
503.0299988,0.06604924053,
503.9299927,0.05743436515,
505,0.01031597797,
506.0599976,0.04321201146,
506.9599915,-0.01233511977,
508.0299988,0.02791513689,
508.9299927,0.04016486928,
510,0.04539281875,
511.0400085,0.0387009643,
511.9400024,0.01892068796,
512.9799805,-0.0133304894,
514.0200195,0.02741469629,
515.0700073,0.02129739895,
515.9699707,0.02628047019,
517.0100098,0.01268534176,
518.0499878,0.01611574739,
518.9500122,0.02805314586,
520,0.06507805735,
521.039978,0.02933384664,
521.9400024,0.04458405823,
522.9799805,0.02200482227,
524.0200195,0.0298361294,
525.0700073,0.007742262911,
525.9699707,0.04132685065,
527.0100098,0.01240938064,
528.0499878,0.001152311335,
528.9500122,0.02129751258,
530,0.02662567049,
531.0200195,-0.007220651023,
532.0499878,0.01656038314,
532.9400024,0.01873521321,
533.9699707,0.05790898949,
535,0.01586379111,
536.0200195,0.04266048968,
537.0499878,0.07414248586,
537.9400024,0.04711585864,
538.9699707,0.05275231227,
540,0.07316080481,
541.039978,0.07193489373,
541.9400024,0.09880059212,
542.9799805,0.06357495487,
544.0200195,0.03370976076,
545.0700073,0.03761371598,
545.9699707,0.07097231597,
547.0100098,0.03650056943,
548.0499878,0.01378803141,
548.9500122,0.03363428265,
550,0,
551.0200195,0.002791572828,
552.0499878,0.00862852484,
552.9400024,0.05498432741,
553.9699707,0.07294256985,
555,-0.003170597134,
556.0200195,0.02250839956,
557.0499878,0.04723569751,
557.9400024,0.05645949394,
558.9699707,0.08151143044,
560,-0.01074671745,
561.039978,0.07806705683,
561.9400024,0.07533956319,
562.9799805,-0.006984752603,
564.0200195,0.1135632321,
565.0700073,-0.02318164892,
565.9699707,0.0356650725,
567.0100098,0.06053249165,
568.0499878,0.02275335044,
568.9500122,0.02597073838,
570,-0.03161245584,
571.0200195,-0.05888605863,
572.0499878,0.06597968191,
572.9400024,0.06653561443,
573.9699707,0.02125140466,
575,0.0870070532,
576.0200195,0.01968426444,
577.0499878,-0.003380571026,
577.9400024,0.01057153288,
578.9699707,0.02284687199,
580,-0.01226371899,
581.0200195,0.04674942791,
582.0499878,0.004414406605,
582.9400024,-0.01782594621,
583.9699707,-0.0734089762,
585,0.09404816478,
586.0200195,-0.02334278077,
587.0499878,-0.04620495811,
587.9400024,0.06739422679,
588.9699707,0.1579681784,
590,0.1119064093,
591.0200195,0.08500184864,
592.0499878,0.02557719126,
592.9400024,0.0944262743,
593.9699707,-0.004113127477,
595,0.03169848397,
596.0200195,0.01503267698,
597.0499878,0.02648335136,
597.9400024,0.04544335604,
598.9699707,0.1155388132,
600,0.04062068462,
601.0100098,-0.01235193107,
602.0200195,0.06525259465,
603.039978,0.07718550414,
604.0499878,0.07368897647,
605.0700073,0.02497359924,
605.9400024,0.01794443093,
606.9500122,0.1173464581,
607.9699707,0.00775377173,
608.9799805,0.07030507922,
610,0.0160103105,
611.0200195,-0.02117244527,
612.0499878,0.01338281948,
612.9400024,0.05693085864,
613.9699707,0.09064266086,
615,0.07930088043,
616.0200195,0.05523793772,
617.0499878,0.0951634571,
617.9400024,-0.03944373131,
618.9699707,0.06878249347,
620,0.08164598048,
621.0100098,0.06362131983,
622.0200195,0.09958934039,
623.039978,0.02887319587,
624.0499878,0.02231794223,
625.0700073,0.09145636111,
625.9400024,0.1202865988,
626.9500122,0.04124413058,
627.9699707,0.06621032953,
628.9799805,0.03641319647,
630,0.1856939197,
631.0100098,0.07982575148,
632.0200195,0.1349543482,
633.039978,0.07788629085,
634.0499878,-0.01801033877,
635.0700073,0.1814102829,
635.9400024,0.1175713465,
636.9500122,0.01895650662,
637.9699707,-0.04585893825,
638.9799805,-0.1022007167,
640,0.1473880708,

Sample 5,
Sample 5
Collection Time: 17/08/2023 1:25:08 PM
Operator Name  :
Scan Software Version: 1.2(147)
Parameter List :
Instrument                        Cary Eclipse
Instrument Serial Number          test
Data mode                         Fluorescence
Scan mode                         Excitation
X Mode                            Wavelength (nm)
Start (nm)                        280.00
Stop (nm)                         640.00
Em. Wavelength (nm)               650.00
Ex. Slit (nm)                     5
Em. Slit (nm)                     5
Scan rate (nm/min)                120.00
Data interval (nm)                1.0000
Averaging Time (s)                0.5000
Excitation filter                 Auto
Emission filter                   Open
PMT voltage (V)                   Medium
Corrected spectra                 OFF
Method Log     :
Method Name    : Default
Date/Time stamp: 17/08/2023 12:57:35 PM
Method Modifications:
Overlayed Graphs Changed: 17/08/2023 1:10:34 PM, Old:OFF, New:ON
User Delta Stop Changed: 17/08/2023 1:10:34 PM, Old: 450.00, New: 490.00
User Delta Increment Changed: 17/08/2023 1:10:34 PM, Old:  10.00, New:   0.15
Scan Control Changed: 17/08/2023 1:10:34 PM, Old:Medium, New:Slow
Ave. time (s): Changed: 17/08/2023 1:10:34 PM, Old:0.10000, New:0.50000
Excitation Wavelength Changed: 17/08/2023 1:10:34 PM, Old: 350.00, New: 490.00
Emission Wavelength Changed: 17/08/2023 1:10:34 PM, Old: 400.00, New: 500.00
Stop Wavelength Changed: 17/08/2023 1:10:34 PM, Old: 600.00, New: 750.00
Scan mode: Changed: 17/08/2023 1:17:06 PM, Old:Emission, New:Excitation
User Delta Stop Changed: 17/08/2023 1:17:06 PM, Old: 490.00, New: 620.00
Excitation Wavelength Changed: 17/08/2023 1:17:06 PM, Old: 490.00, New: 220.00
Emission Wavelength Changed: 17/08/2023 1:17:06 PM, Old: 500.00, New: 620.00
Stop Wavelength Changed: 17/08/2023 1:17:06 PM, Old: 750.00, New: 610.00
User Delta Stop Changed: 17/08/2023 1:21:25 PM, Old: 620.00, New: 650.00
Excitation Wavelength Changed: 17/08/2023 1:21:25 PM, Old: 220.00, New: 280.00
Emission Wavelength Changed: 17/08/2023 1:21:25 PM, Old: 620.00, New: 650.00
Stop Wavelength Changed: 17/08/2023 1:21:25 PM, Old: 610.00, New: 640.00
End Method Modifications

