Sample 15,,
Wavelength (nm),Intensity (a.u.),
220,0.09479271621,
220.9299927,0.7765266895,
222.0299988,0.2909302413,
222.9600067,-0.08219122142,
224.0599976,0.110864751,
225,0.09454812109,
225.9299927,0.1658176184,
227.0299988,0.1548407078,
227.9600067,0.1138550788,
229.0599976,0.1302874982,
230,0.09343131632,
230.9299927,0.1361951083,
232.0299988,0.1397977173,
232.9600067,0.04045213759,
234.0599976,0.07531963289,
235,-0.04964965954,
235.9299927,0.1798951775,
237.0299988,0.1993993819,
237.9600067,-0.02174220234,
239.0599976,0.04704091325,
240,0.05204731971,
240.9299927,0.103302002,
242.0299988,0.03770137578,
242.9600067,0.04752726108,
244.0599976,0.03569543734,
245,0.08210555464,
245.9299927,0.05919767544,
247.0299988,0.06177691743,
247.9600067,0.04953448474,
249.0599976,0.04134956002,
250,0.08291790634,
250.9299927,0.04714090377,
252.0299988,0.06433743984,
252.9600067,0.08255919069,
254.0599976,0.09509841353,
255,-0.01738150977,
255.9299927,0.04819102958,
257.0299988,0.04733173549,
257.9599915,0.07164423913,
259.0599976,0.02428385988,
260,0.05599073693,
261.0700073,0.07184159011,
262,0.08631886542,
263.0700073,0.1058630049,
264,0.09142310917,
265.0700073,0.01425587852,
266,0.0876442343,
267.0700073,0.04120983928,
268,0.01205775701,
269.0700073,0.03505923226,
270,0.06204361096,
270.9299927,0.05768362805,
272.0299988,0.05701894686,
272.9599915,0.04778328538,
274.0599976,0.03961323947,
275,0.03368197381,
275.9299927,0.06747687608,
277.0299988,0.0681899339,
277.9599915,0.04610975459,
279.0599976,0.06636534631,
280,0.05413913727,
280.9299927,0.04900577292,
282.0299988,0.06211215258,
282.9599915,0.04343521968,
284.0599976,0.07909265161,
285,0.01196910534,
285.9299927,0.02331565134,
287.0299988,0.04157190397,
287.9599915,0.06648267061,
289.0599976,0.0623569563,
290,0.07131675631,
291.0700073,0.07964443415,
292,0.1738616377,
293.0700073,0.2990723848,
294,0.5339387655,
295.0700073,0.8225283623,
296,1.081911683,
297.0700073,1.277581453,
298,1.531259656,
299.0700073,1.713283658,
300,1.829901457,
300.9299927,1.944488406,
302.0299988,1.997470379,
302.9599915,2.028296471,
304.0599976,2.122787952,
305,2.238072872,
305.9299927,2.353119135,
307.0299988,2.416215897,
307.9599915,2.487556696,
309.0599976,2.425977945,
310,2.43961668,
311.0700073,2.515454054,
312,2.424021006,
313.0700073,2.490984201,
314,2.394257784,
315.0700073,2.356227875,
316,2.474902153,
317.0700073,2.360737562,
318,2.424736738,
319.0700073,2.334506035,
320,2.439169168,
321.0700073,2.332499981,
322,2.403199196,
323.0700073,2.286769867,
324,2.280144453,
325.0700073,2.268751144,
326,2.072682858,
327.0700073,1.94976747,
328,1.913739204,
329.0700073,1.760593295,
330,1.820751548,
330.9299927,1.834025741,
332.0299988,1.731185317,
332.9599915,1.609946489,
334.0599976,1.662281513,
335,1.585205674,
335.9299927,1.42801106,
337.0299988,1.366460443,
337.9599915,1.263472795,
339.0599976,1.092461109,
340,1.175254345,
341.0700073,0.907366693,
342,0.8102906942,
343.0700073,0.7563965917,
344,0.6243119836,
345.0700073,0.6208099127,
346,0.5442017913,
347.0700073,0.397846669,
348,0.4312393367,
349.0700073,0.3170587122,
350,0.2942218482,
351.0700073,0.3106400073,
352,0.2673977315,
353.0700073,0.2228472084,
354,0.2800738215,
355.0700073,0.2461439222,
356,0.252294302,
357.0700073,0.2435342669,
358,0.2906802297,
359.0700073,0.2383266389,
360,0.2699885964,
361.0700073,0.2268498987,
362,0.2374964803,
363.0700073,0.2370555848,
364,0.269117415,
365.0700073,0.2127403617,
366,0.1867958158,
367.0700073,0.2770949304,
368,0.5966615677,
369.0700073,1.690931916,
370,3.419117451,
371.0599976,5.779609203,
371.9599915,7.318131447,
373.0299988,7.679694176,
373.9299927,6.629683971,
375,4.590567589,
376.0599976,2.497950077,
376.9599915,1.256784201,
378.0299988,0.5526530743,
378.9299927,0.2962643504,
380,0.2334339619,
381.0700073,0.2090598941,
382,0.2338431776,
383.0700073,0.2375634611,
384,0.2519469261,
385.0700073,0.2268391252,
386,0.2557880282,
387.0700073,0.2458309233,
388,0.2379875779,
389.0700073,0.2555090487,
390,0.2630987167,
391.0700073,0.2537150383,
392,0.2860145867,
393.0700073,0.2602615356,
394,0.2380868644,
395.0700073,0.2823992372,
396,0.2519994378,
397.0700073,0.3030826747,
398,0.2609238923,
399.0700073,0.2661208808,
400,0.2737744153,
401.0599976,0.2562195063,
401.9599915,0.2962756455,
403.0299988,0.2757436931,
403.9299927,0.2901368439,
405,0.3239358068,
406.0599976,0.279766649,
406.9599915,0.3227149248,
408.0299988,0.3349135816,
408.9299927,0.3127161264,
410,0.3206078708,
411.0700073,0.3253871202,
412,0.3265874982,
413.0700073,0.3353533447,
414,0.3493465483,
415.0700073,0.3217967451,
416,0.3096543849,
417.0700073,0.3106622696,
418,0.3001840413,
419.0700073,0.2864086032,
420,0.2834670842,
421.0599976,0.282109499,
421.9599915,0.2631021738,
423.0299988,0.249935925,
423.9299927,0.2299245596,
425,0.2432947904,
426.0599976,0.222520858,
426.9599915,0.1880864203,
428.0299988,0.1880814135,
428.9299927,0.1931348443,
430,0.1751080453,
431.0599976,0.1616387963,
431.9599915,0.1664669663,
433.0299988,0.1732121706,
433.9299927,0.1643439829,
435,0.1537848115,
436.0599976,0.1631051302,
436.9599915,0.1460437328,
438.0299988,0.1627995819,
438.9299927,0.1615137011,
440,0.124430038,
441.0599976,0.1547863632,
441.9599915,0.1364553124,
443.0299988,0.147732079,
443.9299927,0.1538848579,
445,0.1560804397,
446.0599976,0.1527568698,
446.9599915,0.1422940195,
448.0299988,0.1598248482,
448.9299927,0.1519434005,
450,0.1496627033,
451.0599976,0.1367827058,
451.9599915,0.1590045989,
453.0299988,0.1558436155,
453.9299927,0.1718003899,
455,0.1533588022,
456.0599976,0.1560057849,
456.9599915,0.1625319719,
458.0299988,0.173210308,
458.9299927,0.1584951729,
460,0.1545098126,
461.0599976,0.1776771694,
461.9599915,0.1786468029,
463.0299988,0.192979008,
463.9299927,0.2030086368,
465,0.1824588329,
466.0599976,0.1797838062,
466.9599915,0.2165181786,
468.0299988,0.1928023994,
468.9299927,0.1789274514,
470,0.1863310933,
471.0400085,0.234982729,
471.9400024,0.2221448869,
472.980011,0.200976029,
474.019989,0.2077588737,
475.0700073,0.2170666754,
475.9700012,0.2371966392,
477.0100098,0.230693385,
478.0499878,0.2425191104,
478.9500122,0.219914943,
480,0.2311314642,
481.0599976,0.2507758439,
481.9599915,0.2643987834,
483.0299988,0.2419449091,
483.9299927,0.2482815981,
485,0.2329073101,
486.0599976,0.2155493945,
486.9599915,0.2275502384,
488.0299988,0.249551028,
488.9299927,0.2175385058,
490,0.2184154242,
491.0400085,0.246534422,
491.9400024,0.255261153,
492.980011,0.2316478193,
494.019989,0.2412366718,
495.0700073,0.2343045622,
495.9700012,0.2564235628,
497.0100098,0.2247402072,
498.0499878,0.2485089302,
498.9500122,0.2594943643,
500,0.2362194359,
501.0599976,0.2443056107,
501.9599915,0.2993030548,
503.0299988,0.2716771364,
503.9299927,0.2392896861,
505,0.212111786,
506.0599976,0.2655853629,
506.9599915,0.2533261776,
508.0299988,0.2826409936,
508.9299927,0.2388340086,
510,0.2714561224,
511.0400085,0.2156592011,
511.9400024,0.3031582236,
512.9799805,0.2802137434,
514.0200195,0.241214931,
515.0700073,0.2582190037,
515.9699707,0.2962569594,
517.0100098,0.3422038257,
518.0499878,0.284306109,
518.9500122,0.3183496892,
520,0.305698663,
521.039978,0.3194431067,
521.9400024,0.3306209743,
522.9799805,0.3226524293,
524.0200195,0.3301798105,
525.0700073,0.362924844,
525.9699707,0.3331364989,
527.0100098,0.3479326069,
528.0499878,0.3411308527,
528.9500122,0.3474544883,
530,0.3312586844,
531.0200195,0.3582918942,
532.0499878,0.365357846,
532.9400024,0.3580606282,
533.9699707,0.3842184544,
535,0.3657214642,
536.0200195,0.357301265,
537.0499878,0.386333704,
537.9400024,0.3667491972,
538.9699707,0.3751324713,
540,0.3925071359,
541.039978,0.4482209086,
541.9400024,0.4090076983,
542.9799805,0.4172281623,
544.0200195,0.4290145338,
545.0700073,0.4341411293,
545.9699707,0.4044900239,
547.0100098,0.4292564392,
548.0499878,0.4584122002,
548.9500122,0.470218271,
550,0.448318541,
551.0200195,0.4959219396,
552.0499878,0.5367844701,
552.9400024,0.5629448295,
553.9699707,0.6094281077,
555,0.6006006002,
556.0200195,0.5695027709,
557.0499878,0.6033517122,
557.9400024,0.7579257488,
558.9699707,0.6666789055,
560,0.7525434494,
561.039978,0.7656884193,
561.9400024,0.7704075575,
562.9799805,0.7725609541,
564.0200195,0.8594742417,
565.0700073,0.8877369761,
565.9699707,1.061941028,
567.0100098,0.9574320912,
568.0499878,1.035518289,
568.9500122,1.035306573,
570,1.145449758,
571.0200195,1.126632214,
572.0499878,1.201945782,
572.9400024,1.280313373,
573.9699707,1.305662036,
575,1.241615176,
576.0200195,1.31125617,
577.0499878,1.372051716,
577.9400024,1.364256501,
578.9699707,1.460578203,
580,1.421090126,
581.0200195,1.443020582,
582.0499878,1.475560427,
582.9400024,1.573803306,
583.9699707,1.579667091,
585,1.434471369,
586.0200195,1.595930934,
587.0499878,1.645104766,
587.9400024,1.696901679,
588.9699707,1.743133903,
590,1.798909307,
591.0200195,1.697243333,
592.0499878,1.835038781,
592.9400024,1.794555783,
593.9699707,1.91464138,
595,1.98706615,
596.0200195,1.968595624,
597.0499878,1.982960105,
597.9400024,2.06618762,
598.9699707,2.17271471,
600,2.123616934,
601.0100098,2.28699255,
602.0200195,2.410618067,
603.039978,2.641096592,
604.0499878,2.592867374,
605.0700073,2.734585285,
605.9400024,2.828626871,
606.9500122,2.950801373,
607.9699707,3.102795124,
608.9799805,3.153449059,
610,3.302377939,
611.0200195,3.516177416,
612.0499878,3.585117102,
612.9400024,3.842700958,
613.9699707,3.763781786,
615,4.074407578,
616.0200195,4.433632851,
617.0499878,4.640556812,
617.9400024,4.690153599,
618.9699707,4.752512455,
620,5.084953308,
621.0100098,5.401124477,
622.0200195,5.449092388,
623.039978,5.561670303,
624.0499878,5.983374596,
625.0700073,5.983144283,
625.9400024,6.121551991,
626.9500122,6.173413277,
627.9699707,6.250816822,
628.9799805,6.297625065,
630,6.192862034,
631.0100098,6.093902111,
632.0200195,6.295882225,
633.039978,6.486221313,
634.0499878,6.167525291,
635.0700073,6.062413216,
635.9400024,6.043800354,
636.9500122,5.932022095,
637.9699707,5.861656666,
638.9799805,5.965883255,
640,5.516786575,
641.0100098,5.55299139,
642.0200195,5.624882221,
643.039978,5.44689846,
644.0499878,5.1197505,
645.0700073,5.406393528,
645.9400024,5.243469715,
646.9500122,5.178630829,
647.9699707,4.831497669,
648.9799805,4.977256775,
650,5.089589119,
651,4.985204697,
652,4.843203545,
653,5.124682426,
654,5.215022087,
655,5.236338615,
656,5.578832626,
657,6.016255379,
658,5.885474205,
659,6.137162209,
660,6.388926029,
661,6.348303318,
662,6.60706234,
663,6.983688831,
664,7.309426785,
665,7.801831722,
666,8.665511131,
667,8.780867577,
668,9.51351738,
669,9.793282509,
670,10.64242935,
671.0100098,10.54212856,
672.0200195,11.20579529,
673.039978,11.62888527,
674.0499878,12.77699184,
675.0700073,13.01567364,
675.9400024,13.7065239,
676.9500122,14.39556885,
677.9699707,14.97863293,
678.9799805,15.3483181,
680,15.92631245,
681,15.97834969,
682,16.70341492,
683,16.85156822,
684,17.2522316,
685,17.79148483,
686,19.18689919,
687,18.87361526,
688,19.46282578,
689,19.12852097,
690,19.537323,
690.9799805,19.5849514,
691.9699707,19.404356,
692.9500122,19.19427872,
693.9400024,19.22220421,
695.0700073,19.09730148,
696.0499878,18.55249786,
697.039978,18.50625801,
698.0200195,17.41798782,
699.0100098,17.03386688,
700,16.17894363,
701,15.33121395,
702,14.59047413,
703,14.15584755,
704,13.54738045,
705,12.74335575,
706,12.13581657,
707,11.40833569,
708,10.46862698,
709,9.531993866,
710,9.085120201,
710.9799805,8.110069275,
711.9699707,7.354438782,
712.9500122,6.883704185,
713.9400024,6.13372612,
715.0700073,5.731014252,
716.0499878,5.471877575,
717.039978,4.58190155,
718.0200195,4.160004139,
719.0100098,3.705907822,
720,3.439430237,
720.9799805,2.745490074,
721.9699707,2.84258604,
722.9500122,2.617717981,
723.9400024,2.247117281,
725.0700073,1.904199123,
726.0499878,1.743363738,
727.039978,1.364750028,
728.0200195,1.953029633,
729.0100098,1.399006248,
730,1.331229687,
730.9799805,0.8149958849,
731.9699707,1.110190511,
732.9500122,0.684345603,
733.9400024,0.7733408213,
735.0700073,0.7856033444,
736.0499878,0.3037378788,
737.039978,0.5983127356,
738.0200195,0.9104264379,
739.0100098,0.5539693832,
740,0.04306539521,

Sample 15,
Sample 15
Collection Time: 8/08/2023 4:36:06 PM
Operator Name  :
Scan Software Version: 1.2(147)
Parameter List :
Instrument                        Cary Eclipse
Instrument Serial Number          test
Data mode                         Fluorescence
Scan mode                         Excitation
X Mode                            Wavelength (nm)
Start (nm)                        220.00
Stop (nm)                         740.00
Em. Wavelength (nm)               750.00
Ex. Slit (nm)                     5
Em. Slit (nm)                     5
Scan rate (nm/min)                120.00
Data interval (nm)                1.0000
Averaging Time (s)                0.5000
Excitation filter                 Auto
Emission filter                   Open
PMT voltage (V)                   Medium
Corrected spectra                 OFF
Method Log     :
Method Name    : Default
Date/Time stamp: 8/08/2023 3:45:53 PM
Method Modifications:
Overlayed Graphs Changed: 8/08/2023 3:46:16 PM, Old:OFF, New:ON
Scan Control Changed: 8/08/2023 3:46:16 PM, Old:Medium, New:Slow
Ave. time (s): Changed: 8/08/2023 3:46:16 PM, Old:0.10000, New:0.50000
Excitation Wavelength Changed: 8/08/2023 3:46:16 PM, Old: 350.00, New: 390.00
Stop Wavelength Changed: 8/08/2023 3:46:16 PM, Old: 600.00, New: 700.00
Scan mode: Changed: 8/08/2023 3:53:59 PM, Old:Emission, New:Excitation
User Delta Stop Changed: 8/08/2023 3:53:59 PM, Old: 450.00, New: 550.00
User Delta Increment Changed: 8/08/2023 3:53:59 PM, Old:  10.00, New:   0.15
Excitation Wavelength Changed: 8/08/2023 3:53:59 PM, Old: 390.00, New: 220.00
Emission Wavelength Changed: 8/08/2023 3:53:59 PM, Old: 400.00, New: 550.00
Stop Wavelength Changed: 8/08/2023 3:53:59 PM, Old: 700.00, New: 540.00
Scan mode: Changed: 8/08/2023 4:01:40 PM, Old:Excitation, New:Emission
Excitation Wavelength Changed: 8/08/2023 4:01:40 PM, Old: 220.00, New: 420.00
Emission Wavelength Changed: 8/08/2023 4:01:40 PM, Old: 550.00, New: 430.00
Stop Wavelength Changed: 8/08/2023 4:01:40 PM, Old: 540.00, New: 700.00
Scan mode: Changed: 8/08/2023 4:08:47 PM, Old:Emission, New:Excitation
Excitation Wavelength Changed: 8/08/2023 4:08:47 PM, Old: 420.00, New: 220.00
Emission Wavelength Changed: 8/08/2023 4:08:47 PM, Old: 430.00, New: 540.00
Stop Wavelength Changed: 8/08/2023 4:08:47 PM, Old: 700.00, New: 530.00
Scan mode: Changed: 8/08/2023 4:17:05 PM, Old:Excitation, New:Emission
User Delta Stop Changed: 8/08/2023 4:17:05 PM, Old: 550.00, New: 585.00
Excitation Wavelength Changed: 8/08/2023 4:17:05 PM, Old: 220.00, New: 585.00
Emission Wavelength Changed: 8/08/2023 4:17:05 PM, Old: 540.00, New: 595.00
Stop Wavelength Changed: 8/08/2023 4:17:05 PM, Old: 530.00, New: 750.00
User Delta Stop Changed: 8/08/2023 4:19:05 PM, Old: 585.00, New: 630.00
Excitation Wavelength Changed: 8/08/2023 4:19:05 PM, Old: 585.00, New: 630.00
Emission Wavelength Changed: 8/08/2023 4:19:05 PM, Old: 595.00, New: 640.00
Stop Wavelength Changed: 8/08/2023 4:19:05 PM, Old: 750.00, New: 850.00
Scan mode: Changed: 8/08/2023 4:26:11 PM, Old:Emission, New:Excitation
User Delta Stop Changed: 8/08/2023 4:26:11 PM, Old: 630.00, New: 750.00
Excitation Wavelength Changed: 8/08/2023 4:26:11 PM, Old: 630.00, New: 220.00
Emission Wavelength Changed: 8/08/2023 4:26:11 PM, Old: 640.00, New: 750.00
Stop Wavelength Changed: 8/08/2023 4:26:11 PM, Old: 850.00, New: 740.00
PMT Volts Changed: 8/08/2023 4:30:58 PM, Old:600, New:800
Emission PMT (V): Changed: 8/08/2023 4:30:58 PM, Old: 600, New: 800
Excitation Wavelength Changed: 8/08/2023 4:30:58 PM, Old: 220.00, New: 400.00
Emission Wavelength Changed: 8/08/2023 4:30:58 PM, Old: 750.00, New: 720.00
Stop Wavelength Changed: 8/08/2023 4:30:58 PM, Old: 740.00, New: 710.00
PMT Volts Changed: 8/08/2023 4:35:35 PM, Old:800, New:600
Emission PMT (V): Changed: 8/08/2023 4:35:35 PM, Old: 800, New: 600
Emission Wavelength Changed: 8/08/2023 4:35:35 PM, Old: 720.00, New: 750.00
Stop Wavelength Changed: 8/08/2023 4:35:35 PM, Old: 710.00, New: 740.00
Excitation Wavelength Changed: 8/08/2023 4:36:02 PM, Old: 400.00, New: 220.00
End Method Modifications

