Sample 32,,
Wavelength (nm),Intensity (a.u.),
220,0.3508212268,
220.9299927,0.1121201962,
222.0299988,0.3547021747,
222.9600067,0.2234046906,
224.0599976,0.37414065,
225,0.1137087271,
225.9299927,0.2168764621,
227.0299988,0.1367098391,
227.9600067,0.2817389965,
229.0599976,0.1274903417,
230,0.1184755564,
230.9299927,0.09078025073,
232.0299988,0.08813581616,
232.9600067,0.2539958954,
234.0599976,0.1167700142,
235,0.2530561388,
235.9299927,0.03122092597,
237.0299988,-0.02312218957,
237.9600067,0.13195467,
239.0599976,0.03973106667,
240,0.08644211292,
240.9299927,-0.009629396722,
242.0299988,0.07873648405,
242.9600067,0.0376595147,
244.0599976,0.09913700819,
245,0.07224568725,
245.9299927,0.04917829484,
247.0299988,0.02485269494,
247.9600067,0.05437596142,
249.0599976,0.1049626321,
250,0.1231833622,
250.9299927,0.04324735701,
252.0299988,0.05828600004,
252.9600067,0.1182826757,
254.0599976,0.07188788056,
255,0.111939542,
255.9299927,0.03379800543,
257.0299988,0.08562980592,
257.9599915,0.01634998806,
259.0599976,0.05321540311,
260,0.04836257175,
261.0700073,0.0426742807,
262,0.08362777531,
263.0700073,0.0457162708,
264,0.01944641024,
265.0700073,0.0884295851,
266,0.1671062708,
267.0700073,0.09255033731,
268,0.07244518399,
269.0700073,0.1350796074,
270,0.04754266143,
270.9299927,0.09951397777,
272.0299988,0.03975593299,
272.9599915,0.07167125493,
274.0599976,0.05619718879,
275,0.03918362409,
275.9299927,0.06580643356,
277.0299988,0.0816796273,
277.9599915,0.0725409463,
279.0599976,0.06163982302,
280,0.04142459109,
280.9299927,0.03300432488,
282.0299988,0.05766236782,
282.9599915,0.04790975526,
284.0599976,0.05201749876,
285,0.01225548144,
285.9299927,0.02895859629,
287.0299988,0.03582223877,
287.9599915,0.04596511275,
289.0599976,0.05866843462,
290,0.03854840621,
291.0700073,0.06211252883,
292,0.1529471278,
293.0700073,0.230373174,
294,0.3662361801,
295.0700073,0.5019369125,
296,0.6867679358,
297.0700073,0.8653387427,
298,1.018515348,
299.0700073,1.066747069,
300,1.090169668,
300.9299927,1.005778551,
302.0299988,1.052372813,
302.9599915,1.167493463,
304.0599976,0.9546257257,
305,1.106427193,
305.9299927,1.135925531,
307.0299988,1.139477372,
307.9599915,0.9837917686,
309.0599976,1.119813681,
310,1.21383214,
311.0700073,1.057070732,
312,1.118439555,
313.0700073,1.175201774,
314,1.1729424,
315.0700073,1.227555275,
316,1.246702552,
317.0700073,1.066091537,
318,1.143158913,
319.0700073,1.271050811,
320,1.131885886,
321.0700073,1.111067414,
322,1.0471524,
323.0700073,1.09463954,
324,1.214512944,
325.0700073,0.9346673489,
326,1.067140102,
327.0700073,0.805568397,
328,0.9411122799,
329.0700073,0.8303590417,
330,0.9717803597,
330.9299927,0.8936519623,
332.0299988,1.181506872,
332.9599915,0.9625833631,
334.0599976,1.201776505,
335,0.8742341995,
335.9299927,1.039335966,
337.0299988,0.9029627442,
337.9599915,0.9433147311,
339.0599976,0.873750031,
340,0.8645240068,
341.0700073,0.8533599377,
342,0.8593268991,
343.0700073,0.7545699477,
344,0.8935515285,
345.0700073,0.7114938498,
346,0.7874928713,
347.0700073,0.7342032194,
348,0.7415493727,
349.0700073,0.7402710915,
350,0.7513993979,
351.0700073,1.042485714,
352,0.7369560003,
353.0700073,0.6206513047,
354,0.6693792343,
355.0700073,0.7371149659,
356,0.7532411218,
357.0700073,0.6602360606,
358,0.5631935596,
359.0700073,0.6299974322,
360,0.6609290242,
361.0700073,0.5878233314,
362,0.5957297087,
363.0700073,0.4989815652,
364,0.5662394166,
365.0700073,0.5459340215,
366,0.4618417621,
367.0700073,0.6183092594,
368,0.4497710168,
369.0700073,0.4569164813,
370,0.5342987776,
371.0599976,0.555221796,
371.9599915,0.557474792,
373.0299988,0.6002781391,
373.9299927,0.600497365,
375,0.5282956362,
376.0599976,0.4853668511,
376.9599915,0.4465764165,
378.0299988,0.3653574586,
378.9299927,0.4435309768,
380,0.5159363747,
381.0700073,0.5107387304,
382,0.5038465261,
383.0700073,0.4670214057,
384,0.4975314438,
385.0700073,0.3982661068,
386,0.440720588,
387.0700073,0.3512849808,
388,0.4211757481,
389.0700073,0.3834261298,
390,0.3987904787,
391.0700073,0.3705096543,
392,0.3669395745,
393.0700073,0.3829627335,
394,0.4269819856,
395.0700073,0.4370898008,
396,0.4365562797,
397.0700073,0.3727865815,
398,0.3724561334,
399.0700073,0.3205803931,
400,0.3900032043,
401.0599976,0.3076326549,
401.9599915,0.3028814793,
403.0299988,0.4139078259,
403.9299927,0.3009441197,
405,0.4014090598,
406.0599976,0.2499711663,
406.9599915,0.3341146708,
408.0299988,0.3348543048,
408.9299927,0.3473536372,
410,0.2662903666,
411.0700073,0.3214358985,
412,0.2736379802,
413.0700073,0.3025334477,
414,0.2524919808,
415.0700073,0.2803951502,
416,0.2618811727,
417.0700073,0.3006345332,
418,0.2979730666,
419.0700073,0.2609878182,
420,0.2450180799,
421.0599976,0.2500556409,
421.9599915,0.2557359338,
423.0299988,0.2688115835,
423.9299927,0.1956929117,
425,0.2477274686,
426.0599976,0.2696248293,
426.9599915,0.2050915807,
428.0299988,0.251193583,
428.9299927,0.2021307349,
430,0.1947367936,
431.0599976,0.2929117978,
431.9599915,0.2792807519,
433.0299988,0.2766676843,
433.9299927,0.2593521476,
435,0.2845146954,
436.0599976,0.2841134071,
436.9599915,0.2538652718,
438.0299988,0.2334962785,
438.9299927,0.2736541927,
440,0.3434666097,
441.0599976,0.2316370755,
441.9599915,0.2790742517,
443.0299988,0.2542069852,
443.9299927,0.2738930881,
445,0.2712725401,
446.0599976,0.2709897757,
446.9599915,0.2902484536,
448.0299988,0.2946311533,
448.9299927,0.2531789243,
450,0.2543554008,
451.0599976,0.2484316081,
451.9599915,0.252350539,
453.0299988,0.2541932464,
453.9299927,0.2953132987,
455,0.2610788643,
456.0599976,0.2605606019,
456.9599915,0.2710441053,
458.0299988,0.3196105659,
458.9299927,0.396579653,
460,0.553773582,
461.0599976,0.7490924001,
461.9599915,1.068450212,
463.0299988,1.43276,
463.9299927,1.84886539,
465,1.992284298,
466.0599976,2.20175004,
466.9599915,1.867285371,
468.0299988,1.748884559,
468.9299927,1.353309512,
470,1.150757909,
471.0400085,0.950615108,
471.9400024,0.7061040998,
472.980011,0.6065470576,
474.019989,0.4689863026,
475.0700073,0.5119997263,
475.9700012,0.5151792169,
477.0100098,0.4492251575,
478.0499878,0.5509890318,
478.9500122,0.4308260083,
480,0.5584138036,
481.0599976,0.5105515718,
481.9599915,0.5288147926,
483.0299988,0.4561788738,
483.9299927,0.548699975,
485,0.5341714621,
486.0599976,0.5692293644,
486.9599915,0.5936163068,
488.0299988,0.5169364214,
488.9299927,0.6180452704,
490,0.6811552644,
491.0400085,0.6603285074,
491.9400024,0.7561534047,
492.980011,0.8147059083,
494.019989,0.7965958714,
495.0700073,0.9270188808,
495.9700012,1.115823865,
497.0100098,1.168899894,
498.0499878,1.310682654,
498.9500122,1.37742579,
500,1.072318792,
501.0599976,1.121042252,
501.9599915,1.089740753,
503.0299988,1.093946815,
503.9299927,0.918145895,
505,0.9280652404,
506.0599976,0.9465364814,
506.9599915,0.8823615313,
508.0299988,0.7437899709,
508.9299927,0.8155846,
510,0.8333613276,
511.0400085,0.984320879,
511.9400024,0.8986814618,
512.9799805,0.9391866922,
514.0200195,0.909555912,
515.0700073,0.9469942451,
515.9699707,0.7337017059,
517.0100098,0.718809247,
518.0499878,0.6175898314,
518.9500122,0.5170388818,
520,0.4520684779,
521.039978,0.546823442,
521.9400024,0.4660087228,
522.9799805,0.4589340389,
524.0200195,0.4407875538,
525.0700073,0.3603200912,
525.9699707,0.307593286,
527.0100098,0.3158790171,
528.0499878,0.3123933375,
528.9500122,0.4268839359,
530,0.3241410255,
531.0200195,0.3630495071,
532.0499878,0.4327013195,
532.9400024,0.5982977152,
533.9699707,0.7221413851,

Sample 32,
Sample 32
Collection Time: 1/08/2023 3:33:11 PM
Operator Name  :
Scan Software Version: 1.2(147)
Parameter List :
Instrument                        Cary Eclipse
Instrument Serial Number          test
Data mode                         Fluorescence
Scan mode                         Excitation
X Mode                            Wavelength (nm)
Start (nm)                        220.00
Stop (nm)                         534.00
Em. Wavelength (nm)               544.00
Ex. Slit (nm)                     5
Em. Slit (nm)                     5
Scan rate (nm/min)                120.00
Data interval (nm)                1.0000
Averaging Time (s)                0.5000
Excitation filter                 Auto
Emission filter                   Open
PMT voltage (V)                   High
Corrected spectra                 OFF
Method Log     :
Method Name    : Default
Date/Time stamp: 1/08/2023 12:56:44 PM
Method Modifications:
Overlayed Graphs Changed: 1/08/2023 2:04:18 PM, Old:OFF, New:ON
Excitation Wavelength Changed: 1/08/2023 2:04:18 PM, Old: 350.00, New: 327.00
Emission Wavelength Changed: 1/08/2023 2:04:18 PM, Old: 400.00, New: 337.00
Scan Control Changed: 1/08/2023 2:04:39 PM, Old:Medium, New:Slow
Ave. time (s): Changed: 1/08/2023 2:04:39 PM, Old:0.10000, New:0.50000
Scan Control Changed: 1/08/2023 2:08:46 PM, Old:Slow, New:Medium
Ave. time (s): Changed: 1/08/2023 2:08:46 PM, Old:0.50000, New:0.10000
Excitation Wavelength Changed: 1/08/2023 2:08:46 PM, Old: 327.00, New: 340.00
Emission Wavelength Changed: 1/08/2023 2:08:46 PM, Old: 337.00, New: 350.00
Excitation Wavelength Changed: 1/08/2023 2:09:58 PM, Old: 340.00, New: 310.00
Emission Wavelength Changed: 1/08/2023 2:09:58 PM, Old: 350.00, New: 320.00
Excitation Wavelength Changed: 1/08/2023 2:13:59 PM, Old: 310.00, New: 350.00
Emission Wavelength Changed: 1/08/2023 2:13:59 PM, Old: 320.00, New: 360.00
Scan Control Changed: 1/08/2023 2:14:44 PM, Old:Medium, New:Slow
Ave. time (s): Changed: 1/08/2023 2:14:44 PM, Old:0.10000, New:0.50000
Excitation Wavelength Changed: 1/08/2023 2:16:25 PM, Old: 350.00, New: 340.00
Emission Wavelength Changed: 1/08/2023 2:16:25 PM, Old: 360.00, New: 350.00
User Delta Stop Changed: 1/08/2023 2:24:01 PM, Old: 450.00, New: 475.00
User Delta Increment Changed: 1/08/2023 2:24:01 PM, Old:  10.00, New:   0.15
Excitation Wavelength Changed: 1/08/2023 2:24:01 PM, Old: 340.00, New: 475.00
Emission Wavelength Changed: 1/08/2023 2:24:01 PM, Old: 350.00, New: 485.00
Stop Wavelength Changed: 1/08/2023 2:24:01 PM, Old: 600.00, New: 750.00
Excitation Wavelength Changed: 1/08/2023 2:24:18 PM, Old: 475.00, New: 465.00
Emission Wavelength Changed: 1/08/2023 2:24:18 PM, Old: 485.00, New: 475.00
Scan mode: Changed: 1/08/2023 2:33:38 PM, Old:Emission, New:Excitation
Excitation Wavelength Changed: 1/08/2023 2:33:38 PM, Old: 465.00, New: 475.00
Emission Wavelength Changed: 1/08/2023 2:33:38 PM, Old: 475.00, New: 465.00
User Delta Stop Changed: 1/08/2023 2:34:03 PM, Old: 475.00, New: 562.00
Excitation Wavelength Changed: 1/08/2023 2:34:03 PM, Old: 475.00, New: 300.00
Emission Wavelength Changed: 1/08/2023 2:34:03 PM, Old: 465.00, New: 562.00
Stop Wavelength Changed: 1/08/2023 2:34:03 PM, Old: 750.00, New: 552.00
Scan mode: Changed: 1/08/2023 2:42:54 PM, Old:Excitation, New:Emission
Excitation Wavelength Changed: 1/08/2023 2:42:54 PM, Old: 300.00, New: 485.00
Emission Wavelength Changed: 1/08/2023 2:42:54 PM, Old: 562.00, New: 495.00
Stop Wavelength Changed: 1/08/2023 2:42:54 PM, Old: 552.00, New: 750.00
Scan mode: Changed: 1/08/2023 2:50:10 PM, Old:Emission, New:Excitation
User Delta Stop Changed: 1/08/2023 2:50:10 PM, Old: 562.00, New: 640.00
Excitation Wavelength Changed: 1/08/2023 2:50:10 PM, Old: 485.00, New: 300.00
Emission Wavelength Changed: 1/08/2023 2:50:10 PM, Old: 495.00, New: 640.00
Stop Wavelength Changed: 1/08/2023 2:50:10 PM, Old: 750.00, New: 630.00
Scan mode: Changed: 1/08/2023 2:57:13 PM, Old:Excitation, New:Emission
Scan Control Changed: 1/08/2023 2:57:13 PM, Old:Slow, New:Medium
Ave. time (s): Changed: 1/08/2023 2:57:13 PM, Old:0.50000, New:0.10000
Excitation Wavelength Changed: 1/08/2023 2:57:13 PM, Old: 300.00, New: 385.00
Emission Wavelength Changed: 1/08/2023 2:57:13 PM, Old: 640.00, New: 385.00
Stop Wavelength Changed: 1/08/2023 2:57:13 PM, Old: 630.00, New: 700.00
Scan Control Changed: 1/08/2023 2:59:25 PM, Old:Medium, New:Slow
Ave. time (s): Changed: 1/08/2023 2:59:25 PM, Old:0.10000, New:0.50000
Scan mode: Changed: 1/08/2023 3:08:16 PM, Old:Emission, New:Excitation
Excitation Wavelength Changed: 1/08/2023 3:08:16 PM, Old: 385.00, New: 300.00
Emission Wavelength Changed: 1/08/2023 3:08:16 PM, Old: 385.00, New: 530.00
Stop Wavelength Changed: 1/08/2023 3:08:16 PM, Old: 700.00, New: 520.00
Excitation Wavelength Changed: 1/08/2023 3:09:34 PM, Old: 300.00, New: 220.00
Scan mode: Changed: 1/08/2023 3:17:47 PM, Old:Excitation, New:Emission
Excitation Wavelength Changed: 1/08/2023 3:17:47 PM, Old: 220.00, New: 390.00
Emission Wavelength Changed: 1/08/2023 3:17:47 PM, Old: 530.00, New: 400.00
Stop Wavelength Changed: 1/08/2023 3:17:47 PM, Old: 520.00, New: 700.00
Scan Control Changed: 1/08/2023 3:17:54 PM, Old:Slow, New:Medium
Ave. time (s): Changed: 1/08/2023 3:17:54 PM, Old:0.50000, New:0.10000
Excitation Wavelength Changed: 1/08/2023 3:18:49 PM, Old: 390.00, New: 380.00
Emission Wavelength Changed: 1/08/2023 3:18:49 PM, Old: 400.00, New: 390.00
PMT Volts Changed: 1/08/2023 3:19:24 PM, Old:600, New:800
Scan Control Changed: 1/08/2023 3:19:24 PM, Old:Medium, New:Slow
Ave. time (s): Changed: 1/08/2023 3:19:24 PM, Old:0.10000, New:0.50000
Emission PMT (V): Changed: 1/08/2023 3:19:24 PM, Old: 600, New: 800
Excitation Wavelength Changed: 1/08/2023 3:19:24 PM, Old: 380.00, New: 390.00
Emission Wavelength Changed: 1/08/2023 3:19:24 PM, Old: 390.00, New: 400.00
Scan mode: Changed: 1/08/2023 3:29:03 PM, Old:Emission, New:Excitation
Excitation Wavelength Changed: 1/08/2023 3:29:03 PM, Old: 390.00, New: 220.00
Emission Wavelength Changed: 1/08/2023 3:29:03 PM, Old: 400.00, New: 544.00
Stop Wavelength Changed: 1/08/2023 3:29:03 PM, Old: 700.00, New: 534.00
End Method Modifications

